TimeStamp,RAW_TP9,RAW_AF7,RAW_AF8,RAW_TP10,AUX_RIGHT,Accelerometer_X,Accelerometer_Y,Accelerometer_Z,Gyro_X,Gyro_Y,Gyro_Z,HeadBandOn,HSI_TP9,HSI_AF7,HSI_AF8,HSI_TP10,Battery,Elements
26:27.2,745.018315,855.8241758,876.7765568,750.6593407,813.1135531,-0.024353,0.192871,0.991516,-1.61499,3.753357,3.813171,1,1,1,1,1,58.046875,
26:27.2,745.8241758,848.974359,886.4468864,756.7032967,819.96337,-0.024353,0.192871,0.991516,-1.61499,3.753357,3.813171,1,1,1,1,1,58.046875,
26:27.9,749.047619,875.970696,851.3919414,742.1978022,827.6190476,-0.018127,0.194946,0.992554,-1.084137,3.39447,3.730927,1,1,1,1,1,58.046875,
26:27.4,749.8534799,863.4798535,855.4212454,758.7179487,765.5677656,-0.019775,0.195068,0.987671,-1.151428,3.237457,3.267365,1,1,1,1,1,58.046875,
26:27.2,751.0622711,855.8241758,900.1465201,762.7472527,832.0512821,-0.024353,0.192871,0.991516,-1.61499,3.753357,3.813171,1,1,1,1,1,58.046875,
26:29.3,751.0622711,837.6923077,857.4358974,759.9267399,758.3150183,-0.020691,0.194214,0.987915,-0.91217,3.18512,4.007568,1,1,1,1,1,58.046875,
26:27.9,753.4798535,873.5531136,848.974359,749.8534799,784.5054945,-0.018127,0.194946,0.992554,-1.084137,3.39447,3.730927,1,1,1,1,1,58.046875,
26:29.3,753.4798535,849.3772894,867.1062271,763.1501832,803.4432234,-0.020691,0.194214,0.987915,-0.91217,3.18512,4.007568,1,1,1,1,1,58.046875,
26:27.2,757.9120879,846.1538462,876.3736264,758.7179487,813.5164835,-0.024353,0.192871,0.991516,-1.61499,3.753357,3.813171,1,1,1,1,1,58.046875,
26:27.4,758.3150183,857.032967,862.2710623,762.7472527,772.014652,-0.019775,0.195068,0.987671,-1.151428,3.237457,3.267365,1,1,1,1,1,58.046875,
26:27.2,759.5238095,857.032967,898.9377289,766.3736264,865.0915751,-0.024353,0.192871,0.991516,-1.61499,3.753357,3.813171,1,1,1,1,1,58.046875,
26:27.4,759.5238095,858.2417582,884.8351648,768.3882784,880.4029304,-0.019775,0.195068,0.987671,-1.151428,3.237457,3.267365,1,1,1,1,1,58.046875,
26:27.9,761.9413919,877.5824176,867.9120879,758.7179487,815.5311355,-0.018127,0.194946,0.992554,-1.084137,3.39447,3.730927,1,1,1,1,1,58.046875,
26:29.3,761.9413919,834.8717949,891.6849817,779.6703297,796.996337,-0.020691,0.194214,0.987915,-0.91217,3.18512,4.007568,1,1,1,1,1,58.046875,
26:27.2,762.3443223,852.6007326,874.7619048,761.1355311,795.3846154,-0.024353,0.192871,0.991516,-1.61499,3.753357,3.813171,1,1,1,1,1,58.046875,
26:27.2,762.7472527,857.032967,873.5531136,768.7912088,776.4468864,-0.024353,0.192871,0.991516,-1.61499,3.753357,3.813171,1,1,1,1,1,58.046875,
26:27.5,762.7472527,841.7216117,861.4652015,761.9413919,770.4029304,-0.017273,0.198914,0.991577,-1.188812,3.947754,3.9328,1,1,1,1,1,58.046875,
26:27.9,763.1501832,873.5531136,853.003663,759.1208791,816.7399267,-0.018127,0.194946,0.992554,-1.084137,3.39447,3.730927,1,1,1,1,1,58.046875,
26:29.3,763.956044,835.2747253,896.5201465,774.029304,852.1978022,-0.020691,0.194214,0.987915,-0.91217,3.18512,4.007568,1,1,1,1,1,58.046875,
26:27.2,764.3589744,858.6446886,913.4432234,776.043956,891.6849817,-0.024353,0.192871,0.991516,-1.61499,3.753357,3.813171,1,1,1,1,1,58.046875,
26:27.5,764.3589744,843.3333333,870.7326007,765.5677656,829.6336996,-0.017273,0.198914,0.991577,-1.188812,3.947754,3.9328,1,1,1,1,1,58.046875,
26:29.3,764.7619048,854.2124542,885.6410256,776.043956,855.4212454,-0.020691,0.194214,0.987915,-0.91217,3.18512,4.007568,1,1,1,1,1,58.046875,
26:27.4,765.1648352,867.9120879,879.1941392,762.3443223,796.5934066,-0.019775,0.195068,0.987671,-1.151428,3.237457,3.267365,1,1,1,1,1,58.046875,
26:27.9,765.5677656,880,887.6556777,761.1355311,909.8168498,-0.018127,0.194946,0.992554,-1.084137,3.39447,3.730927,1,1,1,1,1,58.046875,
26:27.9,767.1794872,849.7802198,830.03663,755.8974359,765.1648352,-0.018127,0.194946,0.992554,-1.084137,3.39447,3.730927,1,1,1,1,1,58.046875,
26:27.9,767.5824176,873.956044,886.8498168,771.2087912,853.8095238,-0.018127,0.194946,0.992554,-1.084137,3.39447,3.730927,1,1,1,1,1,58.046875,
26:27.4,767.985348,860.6593407,903.3699634,769.1941392,897.3260073,-0.019775,0.195068,0.987671,-1.151428,3.237457,3.267365,1,1,1,1,1,58.046875,
26:27.4,769.1941392,869.1208791,850.5860806,766.3736264,765.1648352,-0.019775,0.195068,0.987671,-1.151428,3.237457,3.267365,1,1,1,1,1,58.046875,
26:29.3,769.5970696,846.1538462,886.043956,785.3113553,875.1648352,-0.020691,0.194214,0.987915,-0.91217,3.18512,4.007568,1,1,1,1,1,58.046875,
26:27.9,770,880.4029304,897.3260073,769.1941392,893.6996337,-0.018127,0.194946,0.992554,-1.084137,3.39447,3.730927,1,1,1,1,1,58.046875,
26:27.2,770.8058608,844.9450549,925.9340659,779.6703297,917.8754579,-0.024353,0.192871,0.991516,-1.61499,3.753357,3.813171,1,1,1,1,1,58.046875,
26:27.9,773.2234432,862.2710623,828.8278388,764.3589744,835.2747253,-0.018127,0.194946,0.992554,-1.084137,3.39447,3.730927,1,1,1,1,1,58.046875,
26:27.2,773.6263736,846.5567766,915.4578755,780.8791209,910.6227106,-0.024353,0.192871,0.991516,-1.61499,3.753357,3.813171,1,1,1,1,1,58.046875,
26:27.9,774.029304,872.7472527,878.7912088,775.6410256,921.5018315,-0.018127,0.194946,0.992554,-1.084137,3.39447,3.730927,1,1,1,1,1,58.046875,
26:28.6,775.6410256,851.7948718,813.5164835,775.6410256,773.2234432,-0.016724,0.196655,0.990295,-1.158905,3.783264,3.401947,1,1,1,1,1,58.046875,
26:27.7,776.4468864,840.9157509,855.4212454,774.029304,752.6739927,-0.020996,0.190979,0.982239,-1.659851,2.863617,3.775787,1,1,1,1,1,58.046875,
26:27.4,777.2527473,863.0769231,868.3150183,781.2820513,845.3479853,-0.019775,0.195068,0.987671,-1.151428,3.237457,3.267365,1,1,1,1,1,58.046875,
26:27.4,777.2527473,863.0769231,868.3150183,781.2820513,845.3479853,-0.019775,0.195068,0.987671,-1.151428,3.237457,3.267365,1,1,1,1,1,58.046875,
26:27.4,777.2527473,863.0769231,868.3150183,781.2820513,845.3479853,-0.019775,0.195068,0.987671,-1.151428,3.237457,3.267365,1,1,1,1,1,58.046875,
26:27.4,777.2527473,863.0769231,868.3150183,781.2820513,845.3479853,-0.019775,0.195068,0.987671,-1.151428,3.237457,3.267365,1,1,1,1,1,58.046875,
26:27.4,777.2527473,863.0769231,868.3150183,781.2820513,845.3479853,-0.019775,0.195068,0.987671,-1.151428,3.237457,3.267365,1,1,1,1,1,58.046875,
26:27.4,777.2527473,863.0769231,868.3150183,781.2820513,845.3479853,-0.019775,0.195068,0.987671,-1.151428,3.237457,3.267365,1,1,1,1,1,58.046875,
26:29.3,777.6556777,836.4835165,917.8754579,794.5787546,920.2930403,-0.020691,0.194214,0.987915,-0.91217,3.18512,4.007568,1,1,1,1,1,58.046875,
26:28.1,778.4615385,861.8681319,854.2124542,787.7289377,776.4468864,-0.021057,0.192627,0.98999,-1.151428,3.521576,3.91037,1,1,1,1,1,58.046875,
26:28.4,778.4615385,859.4505495,841.7216117,780.8791209,778.0586081,-0.02655,0.189575,0.990295,-1.368256,3.401947,3.544006,1,1,1,1,1,58.046875,
26:27.2,779.2673993,864.2857143,903.3699634,786.9230769,865.8974359,-0.024353,0.192871,0.991516,-1.61499,3.753357,3.813171,1,1,1,1,1,58.046875,
26:28.4,779.2673993,861.4652015,863.0769231,790.5494505,870.7326007,-0.02655,0.189575,0.990295,-1.368256,3.401947,3.544006,1,1,1,1,1,58.046875,
26:28.4,779.6703297,859.8534799,835.2747253,780.8791209,790.1465201,-0.02655,0.189575,0.990295,-1.368256,3.401947,3.544006,1,1,1,1,1,58.046875,
26:28.6,780.4761905,847.7655678,840.5128205,780.0732601,840.5128205,-0.016724,0.196655,0.990295,-1.158905,3.783264,3.401947,1,1,1,1,1,58.046875,
26:27.4,780.8791209,841.3186813,904.981685,782.0879121,883.6263736,-0.019775,0.195068,0.987671,-1.151428,3.237457,3.267365,1,1,1,1,1,58.046875,
26:29.3,781.2820513,856.2271062,861.0622711,784.1025641,782.4908425,-0.02124,0.193481,0.990906,-1.024323,3.386993,3.850555,1,1,1,1,1,58.046875,
26:27.3,781.6849817,847.3626374,850.5860806,786.9230769,771.2087912,-0.015991,0.196594,0.98407,-1.046753,3.469238,3.200073,1,1,1,1,1,58.046875,
26:29.3,782.0879121,854.2124542,911.025641,796.1904762,901.3553114,-0.020691,0.194214,0.987915,-0.91217,3.18512,4.007568,1,1,1,1,1,58.046875,
26:27.5,782.4908425,841.3186813,890.0732601,787.3260073,847.7655678,-0.017273,0.198914,0.991577,-1.188812,3.947754,3.9328,1,1,1,1,1,58.046875,
26:27.2,782.8937729,856.2271062,896.9230769,792.967033,859.8534799,-0.024353,0.192871,0.991516,-1.61499,3.753357,3.813171,1,1,1,1,1,58.046875,
26:27.5,783.6996337,838.0952381,907.3992674,784.5054945,911.8315018,-0.017273,0.198914,0.991577,-1.188812,3.947754,3.9328,1,1,1,1,1,58.046875,
26:27.7,783.6996337,860.2564103,865.8974359,789.3406593,831.6483516,-0.020996,0.190979,0.982239,-1.659851,2.863617,3.775787,1,1,1,1,1,58.046875,
26:29.6,784.1025641,857.4358974,855.8241758,780.4761905,799.4139194,-0.021667,0.192993,0.987427,-1.398163,3.18512,3.641205,1,1,1,1,1,58.046875,
26:27.2,784.5054945,854.6153846,869.1208791,790.952381,861.4652015,-0.015991,0.196594,0.98407,-1.046753,3.469238,3.200073,1,1,1,1,1,58.046875,
26:28.1,784.5054945,865.0915751,829.6336996,777.2527473,780.0732601,-0.021057,0.192627,0.98999,-1.151428,3.521576,3.91037,1,1,1,1,1,58.046875,
26:29.3,784.9084249,855.018315,895.7142857,790.1465201,848.5714286,-0.020691,0.194214,0.987915,-0.91217,3.18512,4.007568,1,1,1,1,1,58.046875,
26:27.7,785.3113553,866.3003663,841.3186813,783.2967033,778.4615385,-0.020996,0.190979,0.982239,-1.659851,2.863617,3.775787,1,1,1,1,1,58.046875,
26:28.4,785.7142857,860.2564103,865.8974359,784.5054945,820.7692308,-0.02655,0.189575,0.990295,-1.368256,3.401947,3.544006,1,1,1,1,1,58.046875,
26:28.6,785.7142857,859.4505495,835.2747253,791.7582418,859.4505495,-0.016724,0.196655,0.990295,-1.158905,3.783264,3.401947,1,1,1,1,1,58.046875,
26:28.4,786.1172161,861.4652015,856.6300366,788.5347985,840.9157509,-0.02655,0.189575,0.990295,-1.368256,3.401947,3.544006,1,1,1,1,1,58.046875,
26:27.7,786.5201465,858.6446886,866.3003663,785.7142857,865.0915751,-0.020996,0.190979,0.982239,-1.659851,2.863617,3.775787,1,1,1,1,1,58.046875,
26:28.4,786.5201465,859.4505495,885.2380952,791.7582418,897.7289377,-0.02655,0.189575,0.990295,-1.368256,3.401947,3.544006,1,1,1,1,1,58.046875,
26:27.7,786.9230769,864.6886447,855.4212454,786.1172161,758.3150183,-0.020996,0.190979,0.982239,-1.659851,2.863617,3.775787,1,1,1,1,1,58.046875,
26:28.6,786.9230769,865.8974359,810.6959707,784.9084249,769.5970696,-0.016724,0.196655,0.990295,-1.158905,3.783264,3.401947,1,1,1,1,1,58.046875,
26:29.3,787.3260073,831.6483516,926.7399267,805.8608059,928.7545788,-0.020691,0.194214,0.987915,-0.91217,3.18512,4.007568,1,1,1,1,1,58.046875,
26:28.8,788.1318681,866.3003663,851.7948718,790.1465201,794.981685,-0.018005,0.194031,0.985474,-1.390686,3.147736,3.775787,1,1,1,1,1,58.046875,
26:28.1,788.9377289,865.8974359,865.0915751,795.3846154,864.2857143,-0.020813,0.194458,0.990906,-1.151428,3.386993,3.753357,1,1,1,1,1,58.046875,
26:29.3,788.9377289,830.4395604,861.8681319,790.1465201,823.992674,-0.020691,0.194214,0.987915,-0.91217,3.18512,4.007568,1,1,1,1,1,58.046875,
26:27.9,789.3406593,852.6007326,866.3003663,776.8498168,845.3479853,-0.018127,0.194946,0.992554,-1.084137,3.39447,3.730927,1,1,1,1,1,58.046875,
26:29.3,789.3406593,851.3919414,857.4358974,803.4432234,832.8571429,-0.02124,0.193481,0.990906,-1.024323,3.386993,3.850555,1,1,1,1,1,58.046875,
26:29.3,789.3406593,820.3663004,902.5641026,803.4432234,921.9047619,-0.020691,0.194214,0.987915,-0.91217,3.18512,4.007568,1,1,1,1,1,58.046875,
26:30.4,789.7435897,846.959707,860.2564103,791.7582418,799.4139194,-0.023193,0.192993,0.986633,-1.218719,3.708496,3.865509,1,2,1,1,2,58.03125,
26:27.2,790.5494505,865.4945055,909.010989,799.4139194,942.8571429,-0.015991,0.196594,0.98407,-1.046753,3.469238,3.200073,1,1,1,1,1,58.046875,
26:27.2,790.5494505,865.4945055,909.010989,799.4139194,942.8571429,-0.015991,0.196594,0.98407,-1.046753,3.469238,3.200073,1,1,1,1,1,58.046875,
26:27.2,790.5494505,865.4945055,909.010989,799.4139194,942.8571429,-0.015991,0.196594,0.98407,-1.046753,3.469238,3.200073,1,1,1,1,1,58.046875,
26:27.3,790.5494505,865.4945055,909.010989,799.4139194,942.8571429,-0.015991,0.196594,0.98407,-1.046753,3.469238,3.200073,1,1,1,1,1,58.046875,
26:27.3,790.5494505,865.4945055,909.010989,799.4139194,942.8571429,-0.015991,0.196594,0.98407,-1.046753,3.469238,3.200073,1,1,1,1,1,58.046875,
26:27.3,790.5494505,865.4945055,909.010989,799.4139194,942.8571429,-0.015991,0.196594,0.98407,-1.046753,3.469238,3.200073,1,1,1,1,1,58.046875,
26:27.7,790.5494505,864.6886447,853.4065934,785.7142857,815.1282051,-0.020996,0.190979,0.982239,-1.659851,2.863617,3.775787,1,1,1,1,1,58.046875,
26:28.6,790.5494505,859.8534799,831.2454212,785.3113553,790.952381,-0.016724,0.196655,0.990295,-1.158905,3.783264,3.401947,1,1,1,1,1,58.046875,
26:29.6,791.7582418,853.8095238,868.3150183,788.5347985,844.5421245,-0.021667,0.192993,0.987427,-1.398163,3.18512,3.641205,1,1,1,1,1,58.046875,
26:27.5,792.5641026,842.1245421,830.4395604,793.3699634,749.4505495,-0.017273,0.198914,0.991577,-1.188812,3.947754,3.9328,1,1,1,1,1,58.046875,
26:27.9,792.5641026,869.9267399,879.5970696,790.5494505,885.2380952,-0.019714,0.192322,0.988403,-1.338348,3.409424,3.259888,1,1,1,1,1,58.046875,
26:28.6,792.967033,857.032967,853.003663,792.967033,915.0549451,-0.016724,0.196655,0.990295,-1.158905,3.783264,3.401947,1,1,1,1,1,58.046875,
26:29.1,792.967033,855.8241758,830.03663,794.5787546,774.8351648,-0.022888,0.193604,0.991211,-1.106567,3.656158,2.938385,1,1,1,1,1,58.046875,
26:28.1,793.3699634,858.6446886,884.4322344,792.967033,820.3663004,-0.021057,0.192627,0.98999,-1.151428,3.521576,3.91037,1,1,1,1,1,58.046875,
26:28.1,793.3699634,864.2857143,820.3663004,794.981685,809.8901099,-0.021057,0.192627,0.98999,-1.151428,3.521576,3.91037,1,1,1,1,1,58.046875,
26:28.6,793.3699634,865.0915751,825.2014652,789.3406593,858.6446886,-0.016724,0.196655,0.990295,-1.158905,3.783264,3.401947,1,1,1,1,1,58.046875,
26:28.8,793.3699634,862.2710623,881.2087912,803.040293,869.5238095,-0.018005,0.194031,0.985474,-1.390686,3.147736,3.775787,1,1,1,1,1,58.046875,
26:30.4,793.3699634,832.4542125,857.4358974,800.6227106,814.7252747,-0.023926,0.191467,0.992676,-1.173859,3.611298,3.439331,1,2,1,1,2,58.03125,
26:28.4,794.1758242,848.974359,852.1978022,788.9377289,802.2344322,-0.02655,0.189575,0.990295,-1.368256,3.401947,3.544006,1,1,1,1,1,58.046875,
26:27.5,794.5787546,849.7802198,846.5567766,807.0695971,812.3076923,-0.017273,0.198914,0.991577,-1.188812,3.947754,3.9328,1,1,1,1,1,58.046875,
26:28.6,794.981685,854.6153846,871.5384615,804.6520147,939.6336996,-0.016724,0.196655,0.990295,-1.158905,3.783264,3.401947,1,1,1,1,1,58.046875,
26:29.8,794.981685,849.3772894,855.4212454,792.967033,770.8058608,-0.022522,0.195068,0.993591,-0.957031,3.102875,3.9328,1,1,1,1,1,58.046875,
26:27.7,795.3846154,850.5860806,874.7619048,785.7142857,790.1465201,-0.020996,0.190979,0.982239,-1.659851,2.863617,3.775787,1,1,1,1,1,58.046875,
26:29.8,795.3846154,857.032967,865.0915751,798.2051282,800.2197802,-0.022522,0.195068,0.993591,-0.957031,3.102875,3.9328,1,1,1,1,1,58.046875,
26:29.8,795.7875458,861.4652015,888.0586081,801.8315018,819.5604396,-0.022522,0.195068,0.993591,-0.957031,3.102875,3.9328,1,1,1,1,1,58.046875,
26:27.4,796.1904762,862.6739927,897.7289377,803.8461538,903.7728938,-0.019775,0.195068,0.987671,-1.151428,3.237457,3.267365,1,1,1,1,1,58.046875,
26:29.1,796.5934066,855.018315,833.6630037,795.7875458,813.5164835,-0.022888,0.193604,0.991211,-1.106567,3.656158,2.938385,1,1,1,1,1,58.046875,
26:30.4,796.5934066,839.7069597,853.4065934,796.1904762,761.1355311,-0.023926,0.191467,0.992676,-1.173859,3.611298,3.439331,1,2,1,1,2,58.03125,
26:27.2,796.996337,854.2124542,928.7545788,810.6959707,899.7435897,-0.022705,0.194702,0.988586,-1.166382,3.289795,3.887939,1,1,1,1,1,58.046875,
26:28.1,796.996337,868.7179487,861.8681319,793.3699634,894.1025641,-0.021057,0.192627,0.98999,-1.151428,3.521576,3.91037,1,1,1,1,1,58.046875,
26:29.1,796.996337,853.003663,836.4835165,794.5787546,842.9304029,-0.022888,0.193604,0.991211,-1.106567,3.656158,2.938385,1,1,1,1,1,58.046875,
26:29.8,796.996337,861.4652015,864.2857143,793.7728938,814.7252747,-0.022522,0.195068,0.993591,-0.957031,3.102875,3.9328,1,1,1,1,1,58.046875,
26:28.8,797.3992674,863.4798535,866.3003663,797.8021978,783.6996337,-0.018005,0.194031,0.985474,-1.390686,3.147736,3.775787,1,1,1,1,1,58.046875,
26:30.8,797.3992674,846.1538462,828.8278388,799.010989,759.1208791,-0.018555,0.194519,0.984741,-1.286011,3.775787,3.259888,1,2,1,1,2,58.03125,
26:27.3,797.8021978,848.974359,881.2087912,803.8461538,835.2747253,-0.015991,0.196594,0.98407,-1.046753,3.469238,3.200073,1,1,1,1,1,58.046875,
26:27.5,797.8021978,847.7655678,894.1025641,811.9047619,904.981685,-0.017273,0.198914,0.991577,-1.188812,3.947754,3.9328,1,1,1,1,1,58.046875,
26:28.1,797.8021978,857.8388278,846.1538462,791.7582418,760.7326007,-0.020813,0.194458,0.990906,-1.151428,3.386993,3.753357,1,1,1,1,1,58.046875,
26:28.8,797.8021978,863.0769231,842.1245421,790.1465201,810.6959707,-0.018005,0.194031,0.985474,-1.390686,3.147736,3.775787,1,1,1,1,1,58.046875,
26:30.4,797.8021978,837.2893773,891.6849817,809.8901099,910.2197802,-0.023193,0.192993,0.986633,-1.218719,3.708496,3.865509,1,2,1,1,2,58.03125,
26:28.6,798.2051282,857.8388278,863.8827839,796.1904762,875.970696,-0.016724,0.196655,0.990295,-1.158905,3.783264,3.401947,1,1,1,1,1,58.046875,
26:29.1,799.8168498,854.6153846,822.3809524,792.1611722,770.8058608,-0.022034,0.193237,0.989258,-1.323395,3.678589,3.790741,1,1,1,1,1,58.046875,
26:27.7,800.2197802,859.047619,892.0879121,804.6520147,858.2417582,-0.020996,0.190979,0.982239,-1.659851,2.863617,3.775787,1,1,1,1,1,58.046875,
26:27.7,800.2197802,864.6886447,891.6849817,810.2930403,906.1904762,-0.020996,0.190979,0.982239,-1.659851,2.863617,3.775787,1,1,1,1,1,58.046875,
26:27.7,800.6227106,863.8827839,891.6849817,793.3699634,888.8644689,-0.020996,0.190979,0.982239,-1.659851,2.863617,3.775787,1,1,1,1,1,58.046875,
26:27.7,800.6227106,872.3443223,858.2417582,800.6227106,794.5787546,-0.020996,0.190979,0.982239,-1.659851,2.863617,3.775787,1,1,1,1,1,58.046875,
26:28.6,801.025641,859.4505495,836.0805861,807.8754579,806.6666667,-0.016724,0.196655,0.990295,-1.158905,3.783264,3.401947,1,1,1,1,1,58.046875,
26:28.8,801.025641,866.7032967,843.3333333,794.1758242,763.5531136,-0.021851,0.194092,0.993225,-0.91217,3.140259,3.708496,1,1,1,1,1,58.046875,
26:29.1,801.025641,853.4065934,850.5860806,797.3992674,765.5677656,-0.022888,0.193604,0.991211,-1.106567,3.656158,2.938385,1,1,1,1,1,58.046875,
26:27.4,801.4285714,857.4358974,843.3333333,791.7582418,813.9194139,-0.019775,0.195068,0.987671,-1.151428,3.237457,3.267365,1,1,1,1,1,58.046875,
26:29.6,801.4285714,859.047619,857.032967,793.3699634,815.1282051,-0.021667,0.192993,0.987427,-1.398163,3.18512,3.641205,1,1,1,1,1,58.046875,
26:29.9,801.8315018,853.003663,848.1684982,801.025641,747.4358974,-0.017883,0.194519,0.984924,-1.42807,3.37204,3.641205,1,1,1,1,1,58.046875,
26:28.1,802.2344322,859.4505495,846.5567766,787.3260073,800.2197802,-0.021057,0.192627,0.98999,-1.151428,3.521576,3.91037,1,1,1,1,1,58.046875,
26:28.8,802.2344322,862.2710623,840.1098901,803.040293,830.03663,-0.018005,0.194031,0.985474,-1.390686,3.147736,3.775787,1,1,1,1,1,58.046875,
26:28.1,802.6373626,863.0769231,817.5457875,797.8021978,759.9267399,-0.021057,0.192627,0.98999,-1.151428,3.521576,3.91037,1,1,1,1,1,58.046875,
26:29.3,802.6373626,844.5421245,867.1062271,800.6227106,789.3406593,-0.020691,0.194214,0.987915,-0.91217,3.18512,4.007568,1,1,1,1,1,58.046875,
26:29.6,802.6373626,847.7655678,887.6556777,806.2637363,844.9450549,-0.021667,0.192993,0.987427,-1.398163,3.18512,3.641205,1,1,1,1,1,58.046875,
26:29.8,802.6373626,859.047619,861.0622711,801.025641,729.7069597,-0.022522,0.195068,0.993591,-0.957031,3.102875,3.9328,1,1,1,1,1,58.046875,
26:30.4,802.6373626,848.974359,863.4798535,794.981685,780.0732601,-0.023193,0.192993,0.986633,-1.218719,3.708496,3.865509,1,2,1,1,2,58.03125,
26:27.4,803.040293,859.8534799,877.985348,801.025641,859.047619,-0.019775,0.195068,0.987671,-1.151428,3.237457,3.267365,1,1,1,1,1,58.046875,
26:28.6,803.040293,857.4358974,830.03663,799.8168498,813.5164835,-0.021057,0.192444,0.988037,-1.05423,3.349609,3.573914,1,1,1,1,1,58.046875,
26:29.1,803.040293,857.8388278,851.3919414,801.8315018,786.5201465,-0.022888,0.193604,0.991211,-1.106567,3.656158,2.938385,1,1,1,1,1,58.046875,
26:28.4,803.4432234,842.1245421,818.3516484,793.3699634,807.8754579,-0.019348,0.193542,0.996765,-0.650482,3.74588,3.603821,1,1,1,1,1,58.046875,
26:24.2,803.8461538,844.5421245,829.2307692,805.4578755,756.7032967,-0.020447,0.195435,0.992859,-0.777588,3.820648,3.768311,1,1,1,1,1,58.046875,
26:28.1,803.8461538,862.2710623,886.8498168,801.4285714,814.3223443,-0.020813,0.194458,0.990906,-1.151428,3.386993,3.753357,1,1,1,1,1,58.046875,
26:28.8,803.8461538,861.4652015,877.5824176,809.4871795,908.2051282,-0.018005,0.194031,0.985474,-1.390686,3.147736,3.775787,1,1,1,1,1,58.046875,
26:29.8,803.8461538,844.5421245,898.5347985,808.2783883,903.3699634,-0.022522,0.195068,0.993591,-0.957031,3.102875,3.9328,1,1,1,1,1,58.046875,
26:28.1,804.6520147,863.8827839,896.9230769,805.0549451,905.3846154,-0.020813,0.194458,0.990906,-1.151428,3.386993,3.753357,1,1,1,1,1,58.046875,
26:29.8,805.8608059,858.2417582,909.010989,802.2344322,916.2637363,-0.022522,0.195068,0.993591,-0.957031,3.102875,3.9328,1,1,1,1,1,58.046875,
26:27.9,806.2637363,861.0622711,813.1135531,806.6666667,774.4322344,-0.018127,0.194946,0.992554,-1.084137,3.39447,3.730927,1,1,1,1,1,58.046875,
26:28.8,806.2637363,858.6446886,824.3956044,807.8754579,753.0769231,-0.018005,0.194031,0.985474,-1.390686,3.147736,3.775787,1,1,1,1,1,58.046875,
26:28.8,806.2637363,858.6446886,824.3956044,807.8754579,753.0769231,-0.018005,0.194031,0.985474,-1.390686,3.147736,3.775787,1,1,1,1,1,58.046875,
26:28.8,806.2637363,858.6446886,824.3956044,807.8754579,753.0769231,-0.018005,0.194031,0.985474,-1.390686,3.147736,3.775787,1,1,1,1,1,58.046875,
26:28.8,806.2637363,858.6446886,824.3956044,807.8754579,753.0769231,-0.018005,0.194031,0.985474,-1.390686,3.147736,3.775787,1,1,1,1,1,58.046875,
26:28.8,806.2637363,858.6446886,824.3956044,807.8754579,753.0769231,-0.018005,0.194031,0.985474,-1.390686,3.147736,3.775787,1,1,1,1,1,58.046875,
26:28.8,806.2637363,858.6446886,824.3956044,807.8754579,753.0769231,-0.018005,0.194031,0.985474,-1.390686,3.147736,3.775787,1,1,1,1,1,58.046875,
26:29.6,806.2637363,848.974359,844.1391941,800.2197802,806.2637363,-0.019409,0.194031,0.991028,-1.345825,3.529053,3.289795,1,1,1,1,1,58.046875,
26:30.4,806.2637363,854.6153846,857.032967,810.6959707,788.9377289,-0.023193,0.192993,0.986633,-1.218719,3.708496,3.865509,1,2,1,1,2,58.03125,
26:30.8,806.2637363,847.7655678,856.6300366,814.3223443,809.0842491,-0.018555,0.194519,0.984741,-1.286011,3.775787,3.259888,1,2,1,1,2,58.03125,
26:29.1,806.6666667,854.2124542,857.032967,815.9340659,869.9267399,-0.022888,0.193604,0.991211,-1.106567,3.656158,2.938385,1,1,1,1,1,58.046875,
26:29.6,806.6666667,852.6007326,864.6886447,797.8021978,803.040293,-0.021667,0.192993,0.987427,-1.398163,3.18512,3.641205,1,1,1,1,1,58.046875,
26:30.4,807.0695971,846.959707,881.6117216,811.0989011,854.2124542,-0.023926,0.191467,0.992676,-1.173859,3.611298,3.439331,1,2,1,1,2,58.03125,
26:28.4,807.4725275,860.6593407,891.2820513,805.4578755,894.5054945,-0.02655,0.189575,0.990295,-1.368256,3.401947,3.544006,1,1,1,1,1,58.046875,
26:29.5,807.4725275,850.5860806,854.2124542,811.5018315,792.967033,-0.020996,0.197937,0.988586,-1.59256,2.841187,3.783264,1,1,1,1,1,58.046875,
26:30.4,807.8754579,850.1831502,871.9413919,810.6959707,800.2197802,-0.023193,0.192993,0.986633,-1.218719,3.708496,3.865509,1,2,1,1,2,58.03125,
26:30.4,807.8754579,844.1391941,888.4615385,818.3516484,881.6117216,-0.023193,0.192993,0.986633,-1.218719,3.708496,3.865509,1,2,1,1,2,58.03125,
26:27.9,808.2783883,866.7032967,836.0805861,803.4432234,860.6593407,-0.018127,0.194946,0.992554,-1.084137,3.39447,3.730927,1,1,1,1,1,58.046875,
26:31.1,808.2783883,853.003663,837.2893773,811.9047619,813.5164835,-0.023071,0.192627,0.989502,-1.547699,3.962708,3.39447,1,2,1,1,2,58.03125,
26:31.7,808.2783883,846.5567766,814.7252747,802.2344322,786.1172161,-0.018921,0.193481,0.988098,-1.143951,3.252411,3.37204,1,1,1,1,1,58.03125,
26:29.1,808.6813187,851.3919414,858.2417582,804.2490842,859.8534799,-0.022034,0.193237,0.989258,-1.323395,3.678589,3.790741,1,1,1,1,1,58.046875,
26:29.6,808.6813187,853.003663,894.9084249,810.6959707,915.8608059,-0.021667,0.192993,0.987427,-1.398163,3.18512,3.641205,1,1,1,1,1,58.046875,
26:30.8,808.6813187,844.1391941,852.6007326,811.5018315,855.4212454,-0.018555,0.194519,0.984741,-1.286011,3.775787,3.259888,1,2,1,1,2,58.03125,
26:29.8,809.0842491,857.4358974,916.2637363,819.1575092,895.7142857,-0.022522,0.195068,0.993591,-0.957031,3.102875,3.9328,1,1,1,1,1,58.046875,
26:30.4,809.0842491,845.7509158,830.8424908,807.8754579,755.4945055,-0.023926,0.191467,0.992676,-1.173859,3.611298,3.439331,1,2,1,1,2,58.03125,
26:28.1,809.4871795,861.4652015,864.2857143,816.3369963,900.5494505,-0.021057,0.192627,0.98999,-1.151428,3.521576,3.91037,1,1,1,1,1,58.046875,
26:28.4,809.4871795,844.5421245,823.1868132,791.7582418,789.7435897,-0.019348,0.193542,0.996765,-0.650482,3.74588,3.603821,1,1,1,1,1,58.046875,
26:30.4,809.4871795,849.7802198,844.1391941,816.7399267,780.8791209,-0.023193,0.192993,0.986633,-1.218719,3.708496,3.865509,1,2,1,1,2,58.03125,
26:30.4,809.4871795,847.3626374,897.7289377,808.6813187,878.7912088,-0.023193,0.192993,0.986633,-1.218719,3.708496,3.865509,1,2,1,1,2,58.03125,
26:27.2,809.8901099,854.2124542,907.3992674,813.1135531,830.03663,-0.022705,0.194702,0.988586,-1.166382,3.289795,3.887939,1,1,1,1,1,58.046875,
26:30.7,809.8901099,842.9304029,836.4835165,818.3516484,807.0695971,-0.022522,0.192627,0.992981,-1.158905,4.187012,4.299164,1,2,1,1,2,58.03125,
26:31.0,809.8901099,856.2271062,832.4542125,811.5018315,786.5201465,-0.023071,0.192627,0.989502,-1.547699,3.962708,3.39447,1,2,1,1,2,58.03125,
26:27.2,810.2930403,849.7802198,867.1062271,811.0989011,777.6556777,-0.022705,0.194702,0.988586,-1.166382,3.289795,3.887939,1,1,1,1,1,58.046875,
26:28.4,810.2930403,857.4358974,840.9157509,809.4871795,753.0769231,-0.02655,0.189575,0.990295,-1.368256,3.401947,3.544006,1,1,1,1,1,58.046875,
26:29.1,810.2930403,850.1831502,876.3736264,811.9047619,931.978022,-0.022888,0.193604,0.991211,-1.106567,3.656158,2.938385,1,1,1,1,1,58.046875,
26:29.1,810.2930403,853.8095238,839.3040293,807.0695971,864.2857143,-0.022034,0.193237,0.989258,-1.323395,3.678589,3.790741,1,1,1,1,1,58.046875,
26:30.7,810.2930403,853.8095238,828.021978,811.0989011,773.2234432,-0.018555,0.194519,0.984741,-1.286011,3.775787,3.259888,1,2,1,1,2,58.03125,
26:29.1,810.6959707,851.7948718,825.2014652,802.6373626,820.3663004,-0.022034,0.193237,0.989258,-1.323395,3.678589,3.790741,1,1,1,1,1,58.046875,
26:28.1,811.0989011,863.0769231,899.7435897,800.6227106,929.5604396,-0.021057,0.192627,0.98999,-1.151428,3.521576,3.91037,1,1,1,1,1,58.046875,
26:29.0,811.0989011,850.1831502,828.021978,813.9194139,770,-0.022888,0.193604,0.991211,-1.106567,3.656158,2.938385,1,1,1,1,1,58.046875,
26:29.1,811.0989011,861.4652015,863.8827839,809.8901099,903.7728938,-0.022888,0.193604,0.991211,-1.106567,3.656158,2.938385,1,1,1,1,1,58.046875,
26:29.3,811.0989011,847.7655678,888.0586081,824.3956044,901.3553114,-0.02124,0.193481,0.990906,-1.024323,3.386993,3.850555,1,1,1,1,1,58.046875,
26:31.1,811.0989011,863.0769231,834.0659341,796.5934066,771.2087912,-0.023071,0.192627,0.989502,-1.547699,3.962708,3.39447,1,1,1,1,1,58.03125,
26:30.8,811.5018315,846.5567766,841.7216117,811.9047619,802.6373626,-0.018555,0.194519,0.984741,-1.286011,3.775787,3.259888,1,2,1,1,2,58.03125,
26:30.8,811.5018315,846.5567766,841.7216117,811.9047619,802.6373626,-0.018555,0.194519,0.984741,-1.286011,3.775787,3.259888,1,2,1,1,2,58.03125,
26:30.8,811.5018315,846.5567766,841.7216117,811.9047619,802.6373626,-0.018555,0.194519,0.984741,-1.286011,3.775787,3.259888,1,2,1,1,2,58.03125,
26:30.8,811.5018315,846.5567766,841.7216117,811.9047619,802.6373626,-0.018555,0.194519,0.984741,-1.286011,3.775787,3.259888,1,2,1,1,2,58.03125,
26:30.8,811.5018315,846.5567766,841.7216117,811.9047619,802.6373626,-0.018555,0.194519,0.984741,-1.286011,3.775787,3.259888,1,2,1,1,2,58.03125,
26:30.8,811.5018315,846.5567766,841.7216117,811.9047619,802.6373626,-0.018555,0.194519,0.984741,-1.286011,3.775787,3.259888,1,2,1,1,2,58.03125,
26:26.3,811.9047619,834.8717949,819.96337,809.8901099,771.2087912,-0.02124,0.19574,0.992126,-1.031799,3.431854,3.237457,1,1,1,1,1,58.046875,
26:31.7,811.9047619,857.032967,813.9194139,813.9194139,823.1868132,-0.018921,0.193481,0.988098,-1.143951,3.252411,3.37204,1,1,1,1,1,58.03125,
26:29.6,812.3076923,841.7216117,890.4761905,814.7252747,890.8791209,-0.021667,0.192993,0.987427,-1.398163,3.18512,3.641205,1,1,1,1,1,58.046875,
26:24.2,812.7106227,841.3186813,834.0659341,810.6959707,821.1721612,-0.020447,0.195435,0.992859,-0.777588,3.820648,3.768311,1,1,1,1,1,58.046875,
26:31.0,812.7106227,859.8534799,832.0512821,803.8461538,818.7545788,-0.023071,0.192627,0.989502,-1.547699,3.962708,3.39447,1,2,1,1,2,58.03125,
26:31.1,813.1135531,854.2124542,844.9450549,809.8901099,778.8644689,-0.023071,0.192627,0.989502,-1.547699,3.962708,3.39447,1,2,1,1,2,58.03125,
26:31.1,813.1135531,854.2124542,844.9450549,809.8901099,778.8644689,-0.023071,0.192627,0.989502,-1.547699,3.962708,3.39447,1,2,1,1,2,58.03125,
26:31.1,813.1135531,854.2124542,844.9450549,809.8901099,778.8644689,-0.023071,0.192627,0.989502,-1.547699,3.962708,3.39447,1,2,1,1,2,58.03125,
26:31.1,813.1135531,854.2124542,844.9450549,809.8901099,778.8644689,-0.023071,0.192627,0.989502,-1.547699,3.962708,3.39447,1,2,1,1,2,58.03125,
26:31.1,813.1135531,854.2124542,844.9450549,809.8901099,778.8644689,-0.023071,0.192627,0.989502,-1.547699,3.962708,3.39447,1,2,1,1,2,58.03125,
26:31.1,813.1135531,854.2124542,844.9450549,809.8901099,778.8644689,-0.023071,0.192627,0.989502,-1.547699,3.962708,3.39447,1,2,1,1,2,58.03125,
26:26.9,813.5164835,827.6190476,844.9450549,827.2161172,774.4322344,-0.023438,0.192993,0.989624,-0.897217,3.342133,3.977661,1,1,1,1,1,58.046875,
26:27.9,813.5164835,862.2710623,874.3589744,801.4285714,918.6813187,-0.018127,0.194946,0.992554,-1.084137,3.39447,3.730927,1,1,1,1,1,58.046875,
26:28.1,813.5164835,852.6007326,848.1684982,807.4725275,827.2161172,-0.020813,0.194458,0.990906,-1.151428,3.386993,3.753357,1,1,1,1,1,58.046875,
26:28.8,813.5164835,862.6739927,886.4468864,812.3076923,905.3846154,-0.018005,0.194031,0.985474,-1.390686,3.147736,3.775787,1,1,1,1,1,58.046875,
26:29.8,813.5164835,854.6153846,905.3846154,809.8901099,863.0769231,-0.022522,0.195068,0.993591,-0.957031,3.102875,3.9328,1,1,1,1,1,58.046875,
26:30.4,813.5164835,850.5860806,856.6300366,817.5457875,876.3736264,-0.023926,0.191467,0.992676,-1.173859,3.611298,3.439331,1,2,1,1,2,58.03125,
26:28.3,813.9194139,854.2124542,845.7509158,814.7252747,830.4395604,-0.023865,0.192505,0.987427,-1.278534,3.753357,3.74588,1,1,1,1,1,58.046875,
26:29.1,813.9194139,853.4065934,870.7326007,813.1135531,919.4871795,-0.022034,0.193237,0.989258,-1.323395,3.678589,3.790741,1,1,1,1,1,58.046875,
26:29.9,813.9194139,834.8717949,828.021978,820.7692308,778.0586081,-0.017883,0.194519,0.984924,-1.42807,3.37204,3.641205,1,1,1,1,1,58.046875,
26:29.9,813.9194139,834.8717949,828.021978,820.7692308,778.0586081,-0.017883,0.194519,0.984924,-1.42807,3.37204,3.641205,1,1,1,1,1,58.046875,
26:29.9,813.9194139,834.8717949,828.021978,820.7692308,778.0586081,-0.017883,0.194519,0.984924,-1.42807,3.37204,3.641205,1,1,1,1,1,58.046875,
26:29.9,813.9194139,834.8717949,828.021978,820.7692308,778.0586081,-0.017883,0.194519,0.984924,-1.42807,3.37204,3.641205,1,1,1,1,1,58.046875,
26:29.9,813.9194139,834.8717949,828.021978,820.7692308,778.0586081,-0.017883,0.194519,0.984924,-1.42807,3.37204,3.641205,1,1,1,1,1,58.046875,
26:29.9,813.9194139,834.8717949,828.021978,820.7692308,778.0586081,-0.017883,0.194519,0.984924,-1.42807,3.37204,3.641205,1,1,1,1,1,58.046875,
26:30.8,813.9194139,847.3626374,839.7069597,813.1135531,759.9267399,-0.018555,0.194519,0.984741,-1.286011,3.775787,3.259888,1,2,1,1,2,58.03125,
26:27.5,814.3223443,834.8717949,864.6886447,809.0842491,848.974359,-0.017273,0.198914,0.991577,-1.188812,3.947754,3.9328,1,1,1,1,1,58.046875,
26:28.4,814.3223443,850.989011,843.7362637,811.9047619,872.3443223,-0.02655,0.189575,0.990295,-1.368256,3.401947,3.544006,1,1,1,1,1,58.046875,
26:29.1,814.7252747,854.2124542,886.043956,814.3223443,861.8681319,-0.022888,0.193604,0.991211,-1.106567,3.656158,2.938385,1,1,1,1,1,58.046875,
26:31.7,814.7252747,860.2564103,821.5750916,801.8315018,752.6739927,-0.018921,0.193481,0.988098,-1.143951,3.252411,3.37204,1,1,1,1,1,58.03125,
26:28.8,815.1282051,863.0769231,904.5787546,818.7545788,893.2967033,-0.018005,0.194031,0.985474,-1.390686,3.147736,3.775787,1,1,1,1,1,58.046875,
26:29.1,815.1282051,861.4652015,881.6117216,815.9340659,890.0732601,-0.022888,0.193604,0.991211,-1.106567,3.656158,2.938385,1,1,1,1,1,58.046875,
26:30.7,815.1282051,850.1831502,846.959707,817.9487179,793.3699634,-0.022522,0.192627,0.992981,-1.158905,4.187012,4.299164,1,2,1,1,2,58.03125,
26:27.3,815.5311355,850.5860806,846.959707,819.1575092,797.3992674,-0.015991,0.196594,0.98407,-1.046753,3.469238,3.200073,1,1,1,1,1,58.046875,
26:29.3,815.9340659,838.9010989,894.1025641,826.8131868,869.5238095,-0.020691,0.194214,0.987915,-0.91217,3.18512,4.007568,1,1,1,1,1,58.046875,
26:29.6,815.9340659,853.003663,874.7619048,811.5018315,809.4871795,-0.021667,0.192993,0.987427,-1.398163,3.18512,3.641205,1,1,1,1,1,58.046875,
26:30.7,815.9340659,844.5421245,854.2124542,820.7692308,796.5934066,-0.022522,0.192627,0.992981,-1.158905,4.187012,4.299164,1,2,1,1,2,58.03125,
26:30.7,815.9340659,849.7802198,821.1721612,807.8754579,780.0732601,-0.018555,0.194519,0.984741,-1.286011,3.775787,3.259888,1,2,1,1,2,58.03125,
26:24.2,816.3369963,843.7362637,869.5238095,821.1721612,821.1721612,-0.020447,0.195435,0.992859,-0.777588,3.820648,3.768311,1,1,1,1,1,58.046875,
26:26.3,816.3369963,839.7069597,809.0842491,809.8901099,781.6849817,-0.021973,0.197388,0.991211,-1.211243,4.134674,4.022522,1,1,1,1,1,58.046875,
26:27.7,816.3369963,859.047619,819.1575092,819.1575092,832.4542125,-0.019043,0.19458,0.991577,-0.770111,3.53653,3.648682,1,1,1,1,1,58.046875,
26:31.1,816.3369963,868.7179487,865.0915751,807.0695971,859.4505495,-0.023071,0.192627,0.989502,-1.547699,3.962708,3.39447,1,1,1,1,1,58.03125,
26:26.9,816.7399267,834.4688645,838.0952381,835.6776557,779.2673993,-0.023438,0.192993,0.989624,-0.897217,3.342133,3.977661,1,1,1,1,1,58.046875,
26:27.7,816.7399267,860.2564103,875.5677656,827.2161172,871.1355311,-0.020996,0.190979,0.982239,-1.659851,2.863617,3.775787,1,1,1,1,1,58.046875,
26:28.4,816.7399267,850.1831502,868.3150183,813.9194139,876.7765568,-0.02655,0.189575,0.990295,-1.368256,3.401947,3.544006,1,1,1,1,1,58.046875,
26:30.7,816.7399267,841.7216117,842.5274725,821.978022,819.1575092,-0.022522,0.192627,0.992981,-1.158905,4.187012,4.299164,1,2,1,1,2,58.03125,
26:29.1,817.1428571,848.1684982,855.8241758,821.1721612,825.2014652,-0.022888,0.193604,0.991211,-1.106567,3.656158,2.938385,1,1,1,1,1,58.046875,
26:29.1,817.1428571,848.1684982,855.8241758,821.1721612,825.2014652,-0.022888,0.193604,0.991211,-1.106567,3.656158,2.938385,1,1,1,1,1,58.046875,
26:29.1,817.1428571,848.1684982,855.8241758,821.1721612,825.2014652,-0.022888,0.193604,0.991211,-1.106567,3.656158,2.938385,1,1,1,1,1,58.046875,
26:29.1,817.1428571,848.1684982,855.8241758,821.1721612,825.2014652,-0.022888,0.193604,0.991211,-1.106567,3.656158,2.938385,1,1,1,1,1,58.046875,
26:29.1,817.1428571,848.1684982,855.8241758,821.1721612,825.2014652,-0.022888,0.193604,0.991211,-1.106567,3.656158,2.938385,1,1,1,1,1,58.046875,
26:29.1,817.1428571,848.1684982,855.8241758,821.1721612,825.2014652,-0.022888,0.193604,0.991211,-1.106567,3.656158,2.938385,1,1,1,1,1,58.046875,
26:29.3,817.1428571,821.5750916,835.2747253,825.6043956,783.6996337,-0.020691,0.194214,0.987915,-0.91217,3.18512,4.007568,1,1,1,1,1,58.046875,
26:31.7,817.1428571,853.8095238,830.4395604,811.5018315,798.6080586,-0.018921,0.193481,0.988098,-1.143951,3.252411,3.37204,1,1,1,1,1,58.03125,
26:26.3,817.5457875,837.2893773,821.978022,821.5750916,832.0512821,-0.02124,0.19574,0.992126,-1.031799,3.431854,3.237457,1,1,1,1,1,58.046875,
26:29.6,817.5457875,853.003663,861.0622711,815.1282051,859.4505495,-0.021667,0.192993,0.987427,-1.398163,3.18512,3.641205,1,1,1,1,1,58.046875,
26:30.7,817.5457875,843.3333333,869.9267399,816.7399267,828.021978,-0.022522,0.192627,0.992981,-1.158905,4.187012,4.299164,1,2,1,1,2,58.03125,
26:28.1,817.9487179,859.8534799,873.956044,814.7252747,888.8644689,-0.021057,0.192627,0.98999,-1.151428,3.521576,3.91037,1,1,1,1,1,58.046875,
26:28.1,817.9487179,859.8534799,873.956044,814.7252747,888.8644689,-0.021057,0.192627,0.98999,-1.151428,3.521576,3.91037,1,1,1,1,1,58.046875,
26:28.1,817.9487179,859.8534799,873.956044,814.7252747,888.8644689,-0.021057,0.192627,0.98999,-1.151428,3.521576,3.91037,1,1,1,1,1,58.046875,
26:28.1,817.9487179,859.8534799,873.956044,814.7252747,888.8644689,-0.021057,0.192627,0.98999,-1.151428,3.521576,3.91037,1,1,1,1,1,58.046875,
26:28.1,817.9487179,859.8534799,873.956044,814.7252747,888.8644689,-0.021057,0.192627,0.98999,-1.151428,3.521576,3.91037,1,1,1,1,1,58.046875,
26:28.1,817.9487179,859.8534799,873.956044,814.7252747,888.8644689,-0.021057,0.192627,0.98999,-1.151428,3.521576,3.91037,1,1,1,1,1,58.046875,
26:29.6,817.9487179,842.1245421,887.2527473,815.5311355,875.970696,-0.021667,0.192993,0.987427,-1.398163,3.18512,3.641205,1,1,1,1,1,58.046875,
26:30.4,817.9487179,854.6153846,894.9084249,828.021978,944.4688645,-0.023926,0.191467,0.992676,-1.173859,3.611298,3.439331,1,2,1,1,2,58.03125,
26:30.7,817.9487179,841.3186813,840.9157509,826.8131868,797.3992674,-0.015015,0.19696,0.991211,-1.05423,3.566437,3.334656,1,2,1,1,2,58.03125,
26:30.8,817.9487179,842.5274725,893.2967033,821.5750916,919.0842491,-0.018555,0.194519,0.984741,-1.286011,3.775787,3.259888,1,2,1,1,2,58.03125,
26:30.7,818.3516484,836.8864469,830.03663,813.9194139,774.029304,-0.022522,0.192627,0.992981,-1.158905,4.187012,4.299164,1,2,1,1,2,58.03125,
26:31.0,818.3516484,845.3479853,836.0805861,834.0659341,838.0952381,-0.023071,0.192627,0.989502,-1.547699,3.962708,3.39447,1,2,1,1,2,58.03125,
26:27.6,818.7545788,865.8974359,888.8644689,813.9194139,905.7875458,-0.020996,0.190979,0.982239,-1.659851,2.863617,3.775787,1,1,1,1,1,58.046875,
26:29.3,818.7545788,818.7545788,843.7362637,824.7985348,845.3479853,-0.020691,0.194214,0.987915,-0.91217,3.18512,4.007568,1,1,1,1,1,58.046875,
26:30.7,819.1575092,848.5714286,839.3040293,812.7106227,771.6117216,-0.018555,0.194519,0.984741,-1.286011,3.775787,3.259888,1,2,1,1,2,58.03125,
26:31.1,819.1575092,859.047619,827.2161172,804.2490842,805.0549451,-0.023071,0.192627,0.989502,-1.547699,3.962708,3.39447,1,1,1,1,1,58.03125,
26:28.4,819.5604396,858.2417582,882.014652,816.3369963,827.2161172,-0.02655,0.189575,0.990295,-1.368256,3.401947,3.544006,1,1,1,1,1,58.046875,
26:24.2,819.96337,844.1391941,838.4981685,811.5018315,825.6043956,-0.020447,0.195435,0.992859,-0.777588,3.820648,3.768311,1,1,1,1,1,58.046875,
26:28.7,820.3663004,847.3626374,787.3260073,820.3663004,800.2197802,-0.023376,0.194336,0.993347,-0.964508,4.044952,4.134674,1,1,1,1,1,58.046875,
26:30.3,820.3663004,849.7802198,863.4798535,832.4542125,860.6593407,-0.018616,0.194641,0.990295,-1.211243,3.544006,3.895416,1,2,1,1,2,58.046875,
26:31.7,820.3663004,854.6153846,854.2124542,830.8424908,913.040293,-0.018921,0.193481,0.988098,-1.143951,3.252411,3.37204,1,1,1,1,1,58.03125,
26:27.4,820.7692308,856.2271062,855.4212454,816.3369963,873.5531136,-0.019775,0.195068,0.987671,-1.151428,3.237457,3.267365,1,1,1,1,1,58.046875,
26:27.7,820.7692308,857.4358974,857.032967,830.4395604,894.5054945,-0.019043,0.19458,0.991577,-0.770111,3.53653,3.648682,1,1,1,1,1,58.046875,
26:28.4,820.7692308,850.989011,817.5457875,821.1721612,844.1391941,-0.019348,0.193542,0.996765,-0.650482,3.74588,3.603821,1,1,1,1,1,58.046875,
26:30.4,820.7692308,840.5128205,835.6776557,832.8571429,780.8791209,-0.023926,0.191467,0.992676,-1.173859,3.611298,3.439331,1,2,1,1,2,58.03125,
26:30.8,820.7692308,847.7655678,826.007326,829.6336996,821.1721612,-0.018555,0.194519,0.984741,-1.286011,3.775787,3.259888,1,2,1,1,2,58.03125,
26:26.8,821.1721612,832.0512821,823.5897436,834.0659341,816.7399267,-0.026367,0.190674,0.989929,-0.91217,3.461761,4.276733,1,1,1,1,1,58.046875,
26:27.2,821.1721612,847.7655678,864.2857143,819.5604396,845.3479853,-0.022705,0.194702,0.988586,-1.166382,3.289795,3.887939,1,1,1,1,1,58.046875,
26:30.7,821.1721612,855.018315,853.8095238,824.3956044,889.6703297,-0.018555,0.194519,0.984741,-1.286011,3.775787,3.259888,1,2,1,1,2,58.03125,
26:26.9,821.5750916,834.4688645,853.003663,839.7069597,795.7875458,-0.023438,0.192993,0.989624,-0.897217,3.342133,3.977661,1,1,1,1,1,58.046875,
26:28.6,821.5750916,846.959707,819.96337,831.6483516,927.5457875,-0.016724,0.196655,0.990295,-1.158905,3.783264,3.401947,1,1,1,1,1,58.046875,
26:29.3,821.5750916,827.6190476,884.4322344,833.2600733,920.6959707,-0.020691,0.194214,0.987915,-0.91217,3.18512,4.007568,1,1,1,1,1,58.046875,
26:29.9,821.5750916,842.5274725,884.8351648,822.3809524,840.1098901,-0.017883,0.194519,0.984924,-1.42807,3.37204,3.641205,1,1,1,1,1,58.046875,
26:30.3,821.5750916,838.0952381,838.9010989,817.1428571,778.8644689,-0.018616,0.194641,0.990295,-1.211243,3.544006,3.895416,1,2,1,1,2,58.046875,
26:30.4,821.5750916,849.7802198,871.9413919,825.6043956,807.4725275,-0.023193,0.192993,0.986633,-1.218719,3.708496,3.865509,1,2,1,1,2,58.03125,
26:30.4,821.5750916,846.5567766,857.8388278,823.992674,794.5787546,-0.023926,0.191467,0.992676,-1.173859,3.611298,3.439331,1,2,1,1,2,58.03125,
26:31.1,821.5750916,864.2857143,831.6483516,802.2344322,794.1758242,-0.015564,0.195435,0.98999,-1.271057,3.506622,2.953339,1,1,1,1,1,58.03125,
26:31.7,821.5750916,855.8241758,837.2893773,813.9194139,757.5091575,-0.021118,0.193542,0.988953,-1.457977,3.005676,4.067383,1,1,1,1,1,58.03125,
26:24.2,821.978022,837.6923077,816.3369963,815.1282051,811.0989011,-0.020447,0.195435,0.992859,-0.777588,3.820648,3.768311,1,1,1,1,1,58.046875,
26:26.0,821.978022,842.1245421,809.4871795,821.1721612,783.6996337,-0.024841,0.191711,0.990417,-1.121521,4.037476,3.454285,1,1,1,1,1,58.046875,
26:27.9,821.978022,868.3150183,893.6996337,816.7399267,891.6849817,-0.019714,0.192322,0.988403,-1.338348,3.409424,3.259888,1,1,1,1,1,58.046875,
26:29.6,821.978022,850.989011,895.3113553,828.4249084,895.7142857,-0.021667,0.192993,0.987427,-1.398163,3.18512,3.641205,1,1,1,1,1,58.046875,
26:29.8,821.978022,859.4505495,884.029304,822.7838828,870.7326007,-0.022522,0.195068,0.993591,-0.957031,3.102875,3.9328,1,1,1,1,1,58.046875,
26:30.4,821.978022,852.6007326,885.6410256,829.2307692,865.8974359,-0.023193,0.192993,0.986633,-1.218719,3.708496,3.865509,1,2,1,1,2,58.03125,
26:31.0,821.978022,849.7802198,844.5421245,827.6190476,801.025641,-0.020935,0.195923,0.992493,-1.233673,3.790741,4.358978,1,2,1,1,2,58.03125,
26:23.4,822.3809524,853.8095238,842.5274725,822.7838828,792.5641026,-0.028381,0.19165,0.989075,-1.24115,3.431854,3.955231,1,1,1,1,1,58.046875,
26:23.4,822.3809524,853.8095238,842.5274725,822.7838828,792.5641026,-0.028381,0.19165,0.989075,-1.24115,3.431854,3.955231,1,1,1,1,1,58.046875,
26:23.4,822.3809524,853.8095238,842.5274725,822.7838828,792.5641026,-0.028381,0.19165,0.989075,-1.24115,3.431854,3.955231,1,1,1,1,1,58.046875,
26:23.4,822.3809524,853.8095238,842.5274725,822.7838828,792.5641026,-0.028381,0.19165,0.989075,-1.24115,3.431854,3.955231,1,1,1,1,1,58.046875,
26:23.4,822.3809524,853.8095238,842.5274725,822.7838828,792.5641026,-0.028381,0.19165,0.989075,-1.24115,3.431854,3.955231,1,1,1,1,1,58.046875,
26:23.4,822.3809524,853.8095238,842.5274725,822.7838828,792.5641026,-0.028381,0.19165,0.989075,-1.24115,3.431854,3.955231,1,1,1,1,1,58.046875,
26:25.0,822.3809524,849.3772894,814.7252747,831.6483516,780.0732601,-0.02417,0.190796,0.986023,-1.480408,3.813171,3.820648,1,1,1,1,1,58.046875,
26:26.3,822.3809524,838.9010989,847.7655678,824.7985348,844.5421245,-0.021973,0.197388,0.991211,-1.211243,4.134674,4.022522,1,1,1,1,1,58.046875,
26:27.3,822.3809524,842.5274725,852.6007326,832.0512821,792.5641026,-0.015991,0.196594,0.98407,-1.046753,3.469238,3.200073,1,1,1,1,1,58.046875,
26:28.6,822.3809524,851.3919414,856.2271062,833.6630037,935.2014652,-0.016724,0.196655,0.990295,-1.158905,3.783264,3.401947,1,1,1,1,1,58.046875,
26:29.0,822.3809524,851.3919414,848.974359,827.2161172,864.6886447,-0.022888,0.193604,0.991211,-1.106567,3.656158,2.938385,1,1,1,1,1,58.046875,
26:29.6,822.3809524,851.7948718,909.8168498,823.992674,911.4285714,-0.021667,0.192993,0.987427,-1.398163,3.18512,3.641205,1,1,1,1,1,58.046875,
26:27.3,822.7838828,852.6007326,896.5201465,829.6336996,921.0989011,-0.015991,0.196594,0.98407,-1.046753,3.469238,3.200073,1,1,1,1,1,58.046875,
26:27.9,822.7838828,849.7802198,838.9010989,816.7399267,801.4285714,-0.018127,0.194946,0.992554,-1.084137,3.39447,3.730927,1,1,1,1,1,58.046875,
26:28.0,822.7838828,849.7802198,838.9010989,816.7399267,801.4285714,-0.018127,0.194946,0.992554,-1.084137,3.39447,3.730927,1,1,1,1,1,58.046875,
26:28.0,822.7838828,849.7802198,838.9010989,816.7399267,801.4285714,-0.018127,0.194946,0.992554,-1.084137,3.39447,3.730927,1,1,1,1,1,58.046875,
26:28.0,822.7838828,849.7802198,838.9010989,816.7399267,801.4285714,-0.018127,0.194946,0.992554,-1.084137,3.39447,3.730927,1,1,1,1,1,58.046875,
26:28.0,822.7838828,849.7802198,838.9010989,816.7399267,801.4285714,-0.018127,0.194946,0.992554,-1.084137,3.39447,3.730927,1,1,1,1,1,58.046875,
26:28.0,822.7838828,849.7802198,838.9010989,816.7399267,801.4285714,-0.018127,0.194946,0.992554,-1.084137,3.39447,3.730927,1,1,1,1,1,58.046875,
26:30.4,822.7838828,844.9450549,900.952381,829.2307692,881.2087912,-0.023193,0.192993,0.986633,-1.218719,3.708496,3.865509,1,2,1,1,2,58.03125,
26:31.0,822.7838828,852.6007326,823.5897436,827.2161172,792.967033,-0.020935,0.195923,0.992493,-1.233673,3.790741,4.358978,1,2,1,1,2,58.03125,
26:31.0,822.7838828,857.032967,845.7509158,824.7985348,857.8388278,-0.023071,0.192627,0.989502,-1.547699,3.962708,3.39447,1,2,1,1,2,58.03125,
26:31.7,822.7838828,855.018315,834.8717949,816.3369963,832.8571429,-0.018921,0.193481,0.988098,-1.143951,3.252411,3.37204,1,1,1,1,1,58.03125,
26:26.8,823.1868132,827.2161172,839.3040293,839.7069597,814.7252747,-0.026367,0.190674,0.989929,-0.91217,3.461761,4.276733,1,1,1,1,1,58.046875,
26:26.8,823.1868132,827.2161172,839.3040293,839.7069597,814.7252747,-0.026367,0.190674,0.989929,-0.91217,3.461761,4.276733,1,1,1,1,1,58.046875,
26:26.8,823.1868132,827.2161172,839.3040293,839.7069597,814.7252747,-0.026367,0.190674,0.989929,-0.91217,3.461761,4.276733,1,1,1,1,1,58.046875,
26:26.8,823.1868132,827.2161172,839.3040293,839.7069597,814.7252747,-0.026367,0.190674,0.989929,-0.91217,3.461761,4.276733,1,1,1,1,1,58.046875,
26:26.8,823.1868132,827.2161172,839.3040293,839.7069597,814.7252747,-0.026367,0.190674,0.989929,-0.91217,3.461761,4.276733,1,1,1,1,1,58.046875,
26:26.8,823.1868132,827.2161172,839.3040293,839.7069597,814.7252747,-0.026367,0.190674,0.989929,-0.91217,3.461761,4.276733,1,1,1,1,1,58.046875,
26:28.8,823.1868132,864.2857143,860.2564103,820.3663004,846.959707,-0.021851,0.194092,0.993225,-0.91217,3.140259,3.708496,1,1,1,1,1,58.046875,
26:30.8,823.1868132,851.7948718,844.5421245,822.7838828,860.2564103,-0.018555,0.194519,0.984741,-1.286011,3.775787,3.259888,1,2,1,1,2,58.03125,
26:26.9,823.5897436,834.8717949,862.6739927,844.5421245,852.6007326,-0.023438,0.192993,0.989624,-0.897217,3.342133,3.977661,1,1,1,1,1,58.046875,
26:31.7,823.5897436,857.4358974,822.3809524,819.5604396,789.7435897,-0.018921,0.193481,0.988098,-1.143951,3.252411,3.37204,1,1,1,1,1,58.03125,
26:24.8,823.992674,843.3333333,815.5311355,817.5457875,772.014652,-0.024109,0.19397,0.993347,-0.837402,3.267365,4.127197,1,1,1,1,1,58.046875,
26:26.1,823.992674,837.6923077,815.5311355,839.3040293,790.1465201,-0.019348,0.195374,0.989685,-0.822449,4.059906,3.596344,1,1,1,1,1,58.046875,
26:26.3,823.992674,834.8717949,829.2307692,829.6336996,857.032967,-0.021973,0.197388,0.991211,-1.211243,4.134674,4.022522,1,1,1,1,1,58.046875,
26:26.4,823.992674,836.0805861,821.5750916,824.3956044,758.7179487,-0.024841,0.19397,0.993652,-0.979462,3.386993,3.544006,1,1,1,1,1,58.046875,
26:26.4,823.992674,848.5714286,813.9194139,821.1721612,802.2344322,-0.021973,0.193726,0.985962,-1.555176,3.401947,3.775787,1,1,1,1,1,58.046875,
26:26.5,823.992674,849.7802198,841.7216117,826.4102564,819.5604396,-0.021973,0.193726,0.985962,-1.555176,3.401947,3.775787,1,1,1,1,1,58.046875,
26:26.8,823.992674,848.1684982,826.4102564,833.6630037,759.9267399,-0.02179,0.194641,0.98999,-1.226196,3.551483,3.648682,1,1,1,1,1,58.046875,
26:27.5,823.992674,839.7069597,819.1575092,820.7692308,784.5054945,-0.017273,0.198914,0.991577,-1.188812,3.947754,3.9328,1,1,1,1,1,58.046875,
26:28.4,823.992674,852.1978022,812.7106227,822.7838828,788.1318681,-0.019348,0.193542,0.996765,-0.650482,3.74588,3.603821,1,1,1,1,1,58.046875,
26:28.8,823.992674,850.1831502,859.8534799,830.03663,814.7252747,-0.018005,0.194031,0.985474,-1.390686,3.147736,3.775787,1,1,1,1,1,58.046875,
26:31.8,823.992674,845.7509158,821.1721612,826.4102564,772.4175824,-0.016602,0.197388,0.991577,-1.091614,3.977661,3.416901,1,1,1,1,1,58.03125,
26:27.9,824.3956044,869.5238095,839.3040293,817.9487179,776.043956,-0.019714,0.192322,0.988403,-1.338348,3.409424,3.259888,1,1,1,1,1,58.046875,
26:29.0,824.3956044,848.1684982,825.6043956,824.7985348,737.3626374,-0.022888,0.193604,0.991211,-1.106567,3.656158,2.938385,1,1,1,1,1,58.046875,
26:29.1,824.3956044,850.989011,880.8058608,832.8571429,916.6666667,-0.022888,0.193604,0.991211,-1.106567,3.656158,2.938385,1,1,1,1,1,58.046875,
26:29.3,824.3956044,845.7509158,882.8205128,831.6483516,836.8864469,-0.02124,0.193481,0.990906,-1.024323,3.386993,3.850555,1,1,1,1,1,58.046875,
26:29.8,824.3956044,855.4212454,861.4652015,821.5750916,792.5641026,-0.01825,0.196716,0.979187,-1.540222,3.297272,3.805695,1,1,1,1,1,58.046875,
26:30.7,824.3956044,838.4981685,832.0512821,836.0805861,833.6630037,-0.015015,0.19696,0.991211,-1.05423,3.566437,3.334656,1,2,1,1,2,58.03125,
26:31.0,824.3956044,854.6153846,857.8388278,824.7985348,827.2161172,-0.023071,0.192627,0.989502,-1.547699,3.962708,3.39447,1,2,1,1,2,58.03125,
26:31.4,824.3956044,855.4212454,817.5457875,821.1721612,777.6556777,-0.020325,0.19458,0.99115,-1.151428,3.686066,3.880463,1,1,1,1,1,58.03125,
26:31.8,824.3956044,840.1098901,804.2490842,823.5897436,788.1318681,-0.016602,0.197388,0.991577,-1.091614,3.977661,3.416901,1,1,1,1,1,58.03125,
26:25.1,824.7985348,848.5714286,821.1721612,823.992674,787.3260073,-0.021912,0.193848,0.994263,-0.672913,3.424377,3.476715,1,1,1,1,1,58.046875,
26:25.8,824.7985348,839.7069597,835.6776557,825.6043956,809.8901099,-0.022034,0.19342,0.989807,-1.158905,3.58139,3.686066,1,1,1,1,1,58.046875,
26:26.7,824.7985348,848.1684982,803.040293,828.8278388,782.0879121,-0.02179,0.194641,0.98999,-1.226196,3.551483,3.648682,1,1,1,1,1,58.046875,
26:30.8,824.7985348,862.6739927,838.9010989,817.5457875,767.1794872,-0.018555,0.194519,0.984741,-1.286011,3.775787,3.259888,1,2,1,1,2,58.03125,
26:24.2,825.2014652,845.3479853,821.978022,822.3809524,779.6703297,-0.020447,0.195435,0.992859,-0.777588,3.820648,3.768311,1,1,1,1,1,58.046875,
26:24.6,825.2014652,841.7216117,825.2014652,828.8278388,774.8351648,-0.02301,0.193726,0.99292,-1.05423,3.760834,3.835602,1,1,1,1,1,58.046875,
26:27.6,825.2014652,857.4358974,857.8388278,811.5018315,782.8937729,-0.020996,0.190979,0.982239,-1.659851,2.863617,3.775787,1,1,1,1,1,58.046875,
26:28.4,825.2014652,851.7948718,850.5860806,809.4871795,863.4798535,-0.019348,0.193542,0.996765,-0.650482,3.74588,3.603821,1,1,1,1,1,58.046875,
26:31.1,825.2014652,868.3150183,815.5311355,808.6813187,787.3260073,-0.015564,0.195435,0.98999,-1.271057,3.506622,2.953339,1,1,1,1,1,58.03125,
26:26.3,825.6043956,843.7362637,822.3809524,834.0659341,771.6117216,-0.023987,0.194824,0.982544,-1.413116,3.573914,3.588867,1,1,1,1,1,58.046875,
26:26.7,825.6043956,855.8241758,801.025641,832.0512821,785.3113553,-0.024231,0.19342,0.988037,-1.271057,3.446808,3.04306,1,1,1,1,1,58.046875,
26:30.7,825.6043956,842.1245421,839.7069597,835.2747253,832.0512821,-0.015015,0.19696,0.991211,-1.05423,3.566437,3.334656,1,2,1,1,2,58.03125,
26:25.8,826.007326,844.9450549,844.5421245,829.2307692,868.7179487,-0.022034,0.19342,0.989807,-1.158905,3.58139,3.686066,1,1,1,1,1,58.046875,
26:26.3,826.007326,841.7216117,818.3516484,823.5897436,779.6703297,-0.021973,0.197388,0.991211,-1.211243,4.134674,4.022522,1,1,1,1,1,58.046875,
26:26.7,826.007326,843.7362637,816.3369963,833.2600733,792.5641026,-0.024231,0.19342,0.988037,-1.271057,3.446808,3.04306,1,1,1,1,1,58.046875,
26:26.7,826.007326,846.959707,798.6080586,825.6043956,742.6007326,-0.02179,0.194641,0.98999,-1.226196,3.551483,3.648682,1,1,1,1,1,58.046875,
26:26.8,826.007326,842.1245421,812.3076923,832.8571429,828.8278388,-0.02179,0.194641,0.98999,-1.226196,3.551483,3.648682,1,1,1,1,1,58.046875,
26:26.9,826.007326,842.1245421,863.4798535,840.9157509,784.9084249,-0.023438,0.192993,0.989624,-0.897217,3.342133,3.977661,1,1,1,1,1,58.046875,
26:28.6,826.007326,859.047619,862.2710623,826.8131868,883.2234432,-0.021057,0.192444,0.988037,-1.05423,3.349609,3.573914,1,1,1,1,1,58.046875,
26:30.7,826.007326,845.7509158,838.0952381,834.4688645,786.5201465,-0.015015,0.19696,0.991211,-1.05423,3.566437,3.334656,1,2,1,1,2,58.03125,
26:31.1,826.007326,864.2857143,846.959707,815.5311355,812.7106227,-0.023071,0.192627,0.989502,-1.547699,3.962708,3.39447,1,2,1,1,2,58.03125,
26:31.1,826.007326,849.3772894,869.9267399,830.8424908,926.3369963,-0.023071,0.192627,0.989502,-1.547699,3.962708,3.39447,1,2,1,1,2,58.03125,
26:31.7,826.007326,856.6300366,853.003663,815.5311355,810.2930403,-0.018921,0.193481,0.988098,-1.143951,3.252411,3.37204,1,1,1,1,1,58.03125,
26:23.3,826.4102564,857.8388278,833.6630037,830.03663,780.4761905,-0.023865,0.192444,0.990112,-1.495361,3.58139,3.297272,1,1,1,1,1,58.046875,
26:25.0,826.4102564,848.974359,802.6373626,837.6923077,784.1025641,-0.02417,0.190796,0.986023,-1.480408,3.813171,3.820648,1,1,1,1,1,58.046875,
26:26.3,826.4102564,845.7509158,821.5750916,827.6190476,775.6410256,-0.02124,0.19574,0.992126,-1.031799,3.431854,3.237457,1,1,1,1,1,58.046875,
26:29.6,826.4102564,848.5714286,863.8827839,824.7985348,834.4688645,-0.019409,0.194031,0.991028,-1.345825,3.529053,3.289795,1,1,1,1,1,58.046875,
26:30.4,826.4102564,844.5421245,872.7472527,845.7509158,889.2673993,-0.023926,0.191467,0.992676,-1.173859,3.611298,3.439331,1,2,1,1,2,58.03125,
26:30.7,826.4102564,836.8864469,863.4798535,832.4542125,817.5457875,-0.015015,0.19696,0.991211,-1.05423,3.566437,3.334656,1,2,1,1,2,58.03125,
26:25.8,826.8131868,849.3772894,820.3663004,823.1868132,785.7142857,-0.023438,0.19519,0.991028,-1.106567,3.686066,3.902893,1,1,1,1,1,58.046875,
26:27.6,826.8131868,856.2271062,823.1868132,816.7399267,765.5677656,-0.020996,0.190979,0.982239,-1.659851,2.863617,3.775787,1,1,1,1,1,58.046875,
26:27.6,826.8131868,856.2271062,823.1868132,816.7399267,765.5677656,-0.020996,0.190979,0.982239,-1.659851,2.863617,3.775787,1,1,1,1,1,58.046875,
26:27.6,826.8131868,856.2271062,823.1868132,816.7399267,765.5677656,-0.020996,0.190979,0.982239,-1.659851,2.863617,3.775787,1,1,1,1,1,58.046875,
26:27.6,826.8131868,856.2271062,823.1868132,816.7399267,765.5677656,-0.020996,0.190979,0.982239,-1.659851,2.863617,3.775787,1,1,1,1,1,58.046875,
26:27.6,826.8131868,856.2271062,823.1868132,816.7399267,765.5677656,-0.020996,0.190979,0.982239,-1.659851,2.863617,3.775787,1,1,1,1,1,58.046875,
26:27.6,826.8131868,856.2271062,823.1868132,816.7399267,765.5677656,-0.020996,0.190979,0.982239,-1.659851,2.863617,3.775787,1,1,1,1,1,58.046875,
26:29.5,826.8131868,845.7509158,829.2307692,824.7985348,741.7948718,-0.020996,0.197937,0.988586,-1.59256,2.841187,3.783264,1,1,1,1,1,58.046875,
26:30.7,826.8131868,846.1538462,865.0915751,836.0805861,873.5531136,-0.015015,0.19696,0.991211,-1.05423,3.566437,3.334656,1,2,1,1,2,58.03125,
26:30.7,826.8131868,846.1538462,865.0915751,836.0805861,873.5531136,-0.015015,0.19696,0.991211,-1.05423,3.566437,3.334656,1,2,1,1,2,58.03125,
26:30.7,826.8131868,846.1538462,865.0915751,836.0805861,873.5531136,-0.015015,0.19696,0.991211,-1.05423,3.566437,3.334656,1,2,1,1,2,58.03125,
26:30.7,826.8131868,846.1538462,865.0915751,836.0805861,873.5531136,-0.015015,0.19696,0.991211,-1.05423,3.566437,3.334656,1,2,1,1,2,58.03125,
26:30.7,826.8131868,846.1538462,865.0915751,836.0805861,873.5531136,-0.015015,0.19696,0.991211,-1.05423,3.566437,3.334656,1,2,1,1,2,58.03125,
26:30.7,826.8131868,846.1538462,865.0915751,836.0805861,873.5531136,-0.015015,0.19696,0.991211,-1.05423,3.566437,3.334656,1,2,1,1,2,58.03125,
26:24.2,827.2161172,836.4835165,849.3772894,832.0512821,875.970696,-0.020447,0.195435,0.992859,-0.777588,3.820648,3.768311,1,1,1,1,1,58.046875,
26:24.2,827.2161172,830.4395604,833.2600733,826.007326,807.8754579,-0.020447,0.195435,0.992859,-0.777588,3.820648,3.768311,1,1,1,1,1,58.046875,
26:28.8,827.2161172,850.1831502,841.7216117,829.6336996,860.2564103,-0.018005,0.194031,0.985474,-1.390686,3.147736,3.775787,1,1,1,1,1,58.046875,
26:29.1,827.2161172,843.3333333,833.2600733,827.2161172,784.9084249,-0.022034,0.193237,0.989258,-1.323395,3.678589,3.790741,1,1,1,1,1,58.046875,
26:30.7,827.2161172,829.6336996,876.7765568,837.6923077,917.4725275,-0.022522,0.192627,0.992981,-1.158905,4.187012,4.299164,1,2,1,1,2,58.03125,
26:30.7,827.2161172,840.9157509,882.014652,840.9157509,872.7472527,-0.022522,0.192627,0.992981,-1.158905,4.187012,4.299164,1,2,1,1,2,58.03125,
26:30.7,827.2161172,847.7655678,853.8095238,824.3956044,780.8791209,-0.018555,0.194519,0.984741,-1.286011,3.775787,3.259888,1,2,1,1,2,58.03125,
26:23.6,827.6190476,839.3040293,836.0805861,839.7069597,799.010989,-0.030029,0.191833,0.991821,-1.188812,3.813171,3.656158,1,2,1,1,2,58.046875,
26:24.5,827.6190476,853.003663,861.8681319,827.2161172,791.3553114,-0.023315,0.191406,0.990112,-1.188812,3.469238,3.850555,1,1,1,1,1,58.046875,
26:26.8,827.6190476,848.5714286,832.4542125,835.6776557,832.8571429,-0.02179,0.194641,0.98999,-1.226196,3.551483,3.648682,1,1,1,1,1,58.046875,
26:26.8,827.6190476,834.4688645,843.7362637,846.1538462,833.6630037,-0.026367,0.190674,0.989929,-0.91217,3.461761,4.276733,1,1,1,1,1,58.046875,
26:27.3,827.6190476,857.032967,873.956044,834.4688645,888.4615385,-0.015991,0.196594,0.98407,-1.046753,3.469238,3.200073,1,1,1,1,1,58.046875,
26:27.9,827.6190476,868.7179487,871.5384615,819.1575092,818.7545788,-0.019714,0.192322,0.988403,-1.338348,3.409424,3.259888,1,1,1,1,1,58.046875,
26:29.9,827.6190476,840.5128205,854.2124542,836.4835165,880,-0.017883,0.194519,0.984924,-1.42807,3.37204,3.641205,1,1,1,1,1,58.046875,
26:30.7,827.6190476,844.5421245,832.8571429,833.6630037,763.1501832,-0.015015,0.19696,0.991211,-1.05423,3.566437,3.334656,1,2,1,1,2,58.03125,
26:31.0,827.6190476,857.4358974,859.4505495,826.4102564,908.6080586,-0.023071,0.192627,0.989502,-1.547699,3.962708,3.39447,1,2,1,1,2,58.03125,
26:31.1,827.6190476,855.8241758,873.1501832,819.5604396,886.4468864,-0.023071,0.192627,0.989502,-1.547699,3.962708,3.39447,1,1,1,1,1,58.03125,
26:31.1,827.6190476,857.8388278,856.6300366,816.7399267,919.0842491,-0.023071,0.192627,0.989502,-1.547699,3.962708,3.39447,1,1,1,1,1,58.03125,
26:31.7,827.6190476,846.959707,845.3479853,823.5897436,878.3882784,-0.018921,0.193481,0.988098,-1.143951,3.252411,3.37204,1,1,1,1,1,58.03125,
26:24.7,828.021978,847.3626374,831.6483516,830.4395604,822.3809524,-0.024597,0.192444,0.990662,-1.308441,3.872986,3.656158,1,1,1,1,1,58.046875,
26:24.7,828.021978,842.9304029,828.021978,831.2454212,774.029304,-0.024597,0.192444,0.990662,-1.308441,3.872986,3.656158,1,1,1,1,1,58.046875,
26:26.1,828.021978,843.7362637,819.1575092,832.0512821,805.8608059,-0.019348,0.195374,0.989685,-0.822449,4.059906,3.596344,1,1,1,1,1,58.046875,
26:26.3,828.021978,850.989011,815.1282051,826.8131868,811.9047619,-0.02124,0.19574,0.992126,-1.031799,3.431854,3.237457,1,1,1,1,1,58.046875,
26:26.3,828.021978,835.6776557,848.974359,835.6776557,895.7142857,-0.02124,0.19574,0.992126,-1.031799,3.431854,3.237457,1,1,1,1,1,58.046875,
26:26.9,828.021978,830.8424908,871.9413919,847.3626374,841.7216117,-0.023438,0.192993,0.989624,-0.897217,3.342133,3.977661,1,1,1,1,1,58.046875,
26:26.9,828.021978,839.7069597,850.5860806,840.9157509,801.025641,-0.024719,0.193542,0.990845,-1.024323,3.327179,3.753357,1,1,1,1,1,58.046875,
26:28.3,828.021978,855.018315,841.7216117,826.4102564,769.5970696,-0.023865,0.192505,0.987427,-1.278534,3.753357,3.74588,1,1,1,1,1,58.046875,
26:28.9,828.021978,848.5714286,822.3809524,825.2014652,789.7435897,-0.017212,0.195801,0.991821,-0.426178,3.805695,3.701019,1,1,1,1,1,58.046875,
26:30.4,828.021978,848.1684982,899.7435897,836.0805861,875.970696,-0.023193,0.192993,0.986633,-1.218719,3.708496,3.865509,1,2,1,1,2,58.03125,
26:30.4,828.021978,848.1684982,899.7435897,836.0805861,875.970696,-0.023193,0.192993,0.986633,-1.218719,3.708496,3.865509,1,2,1,1,2,58.03125,
26:30.4,828.021978,848.1684982,899.7435897,836.0805861,875.970696,-0.023193,0.192993,0.986633,-1.218719,3.708496,3.865509,1,2,1,1,2,58.03125,
26:30.4,828.021978,848.1684982,899.7435897,836.0805861,875.970696,-0.023193,0.192993,0.986633,-1.218719,3.708496,3.865509,1,2,1,1,2,58.03125,
26:30.4,828.021978,848.1684982,899.7435897,836.0805861,875.970696,-0.023193,0.192993,0.986633,-1.218719,3.708496,3.865509,1,2,1,1,2,58.03125,
26:30.4,828.021978,848.1684982,899.7435897,836.0805861,875.970696,-0.023193,0.192993,0.986633,-1.218719,3.708496,3.865509,1,2,1,1,2,58.03125,
26:30.8,828.021978,845.7509158,874.3589744,829.6336996,904.5787546,-0.018555,0.194519,0.984741,-1.286011,3.775787,3.259888,1,2,1,1,2,58.03125,
26:31.7,828.021978,859.4505495,826.007326,822.3809524,806.6666667,-0.021118,0.193542,0.988953,-1.457977,3.005676,4.067383,1,1,1,1,1,58.03125,
26:23.2,828.4249084,837.6923077,827.6190476,821.978022,805.4578755,-0.028931,0.191345,0.987427,-1.256104,4.254303,2.930908,1,1,1,1,1,58.046875,
26:23.2,828.4249084,849.7802198,819.5604396,815.9340659,780.0732601,-0.028931,0.191345,0.987427,-1.256104,4.254303,2.930908,1,1,1,1,1,58.046875,
26:23.3,828.4249084,863.0769231,834.4688645,834.4688645,780.4761905,-0.028381,0.19165,0.989075,-1.24115,3.431854,3.955231,1,1,1,1,1,58.046875,
26:24.2,828.4249084,842.9304029,869.1208791,826.4102564,919.8901099,-0.020447,0.195435,0.992859,-0.777588,3.820648,3.768311,1,1,1,1,1,58.046875,
26:24.6,828.4249084,830.03663,838.4981685,834.0659341,794.1758242,-0.02301,0.193726,0.99292,-1.05423,3.760834,3.835602,1,1,1,1,1,58.046875,
26:25.3,828.4249084,842.9304029,821.5750916,836.4835165,876.3736264,-0.024902,0.192505,0.990662,-1.443024,3.940277,4.052429,1,1,1,1,1,58.046875,
26:26.4,828.4249084,840.5128205,824.3956044,833.2600733,818.3516484,-0.021973,0.193726,0.985962,-1.555176,3.401947,3.775787,1,1,1,1,1,58.046875,
26:26.5,828.4249084,842.1245421,853.003663,832.8571429,808.6813187,-0.021973,0.193726,0.985962,-1.555176,3.401947,3.775787,1,1,1,1,1,58.046875,
26:29.5,828.4249084,853.4065934,877.5824176,834.4688645,880,-0.020996,0.197937,0.988586,-1.59256,2.841187,3.783264,1,1,1,1,1,58.046875,
26:29.5,828.4249084,853.4065934,877.5824176,834.4688645,880,-0.020996,0.197937,0.988586,-1.59256,2.841187,3.783264,1,1,1,1,1,58.046875,
26:29.5,828.4249084,853.4065934,877.5824176,834.4688645,880,-0.020996,0.197937,0.988586,-1.59256,2.841187,3.783264,1,1,1,1,1,58.046875,
26:29.5,828.4249084,853.4065934,877.5824176,834.4688645,880,-0.020996,0.197937,0.988586,-1.59256,2.841187,3.783264,1,1,1,1,1,58.046875,
26:29.5,828.4249084,853.4065934,877.5824176,834.4688645,880,-0.020996,0.197937,0.988586,-1.59256,2.841187,3.783264,1,1,1,1,1,58.046875,
26:29.5,828.4249084,853.4065934,877.5824176,834.4688645,880,-0.020996,0.197937,0.988586,-1.59256,2.841187,3.783264,1,1,1,1,1,58.046875,
26:29.8,828.4249084,847.7655678,851.7948718,826.4102564,780.4761905,-0.01825,0.196716,0.979187,-1.540222,3.297272,3.805695,1,1,1,1,1,58.046875,
26:29.8,828.4249084,857.032967,893.6996337,832.0512821,847.7655678,-0.022522,0.195068,0.993591,-0.957031,3.102875,3.9328,1,1,1,1,1,58.046875,
26:31.1,828.4249084,856.6300366,849.3772894,811.5018315,811.5018315,-0.015564,0.195435,0.98999,-1.271057,3.506622,2.953339,1,1,1,1,1,58.03125,
26:31.8,828.4249084,846.1538462,813.5164835,836.8864469,871.1355311,-0.016602,0.197388,0.991577,-1.091614,3.977661,3.416901,1,1,1,1,1,58.03125,
26:31.8,828.4249084,846.1538462,813.5164835,836.8864469,871.1355311,-0.016602,0.197388,0.991577,-1.091614,3.977661,3.416901,1,1,1,1,1,58.03125,
26:31.8,828.4249084,846.1538462,813.5164835,836.8864469,871.1355311,-0.016602,0.197388,0.991577,-1.091614,3.977661,3.416901,1,1,1,1,1,58.03125,
26:31.8,828.4249084,846.1538462,813.5164835,836.8864469,871.1355311,-0.016602,0.197388,0.991577,-1.091614,3.977661,3.416901,1,1,1,1,1,58.03125,
26:31.8,828.4249084,846.1538462,813.5164835,836.8864469,871.1355311,-0.016602,0.197388,0.991577,-1.091614,3.977661,3.416901,1,1,1,1,1,58.03125,
26:31.8,828.4249084,846.1538462,813.5164835,836.8864469,871.1355311,-0.016602,0.197388,0.991577,-1.091614,3.977661,3.416901,1,1,1,1,1,58.03125,
26:23.0,828.8278388,852.1978022,824.3956044,828.4249084,806.6666667,-0.026611,0.195679,0.993652,-0.710297,3.783264,2.69165,1,1,1,1,1,58.046875,
26:24.2,828.8278388,847.3626374,871.5384615,826.4102564,920.2930403,-0.020447,0.195435,0.992859,-0.777588,3.820648,3.768311,1,1,1,1,1,58.046875,
26:24.3,828.8278388,827.6190476,834.0659341,833.2600733,769.1941392,-0.025574,0.192322,0.989746,-1.443024,3.252411,3.499146,1,1,1,1,1,58.046875,
26:24.6,828.8278388,840.9157509,848.974359,833.2600733,784.5054945,-0.02301,0.193726,0.99292,-1.05423,3.760834,3.835602,1,1,1,1,1,58.046875,
26:25.1,828.8278388,854.6153846,821.978022,823.1868132,763.1501832,-0.019043,0.193054,0.98999,-1.398163,3.446808,3.91037,1,1,1,1,1,58.046875,
26:25.4,828.8278388,848.1684982,812.3076923,827.6190476,802.6373626,-0.023682,0.1922,0.98877,-1.24115,3.588867,3.222504,1,1,1,1,1,58.046875,
26:26.4,828.8278388,847.7655678,836.0805861,834.4688645,835.6776557,-0.024841,0.19397,0.993652,-0.979462,3.386993,3.544006,1,1,1,1,1,58.046875,
26:26.9,828.8278388,823.5897436,869.9267399,839.7069597,816.3369963,-0.023438,0.192993,0.989624,-0.897217,3.342133,3.977661,1,1,1,1,1,58.046875,
26:27.0,828.8278388,842.5274725,830.8424908,830.8424908,789.3406593,-0.022644,0.19458,0.990723,-1.114044,3.424377,3.9328,1,1,1,1,1,58.046875,
26:27.5,828.8278388,829.6336996,838.4981685,826.007326,868.7179487,-0.017273,0.198914,0.991577,-1.188812,3.947754,3.9328,1,1,1,1,1,58.046875,
26:28.2,828.8278388,846.1538462,802.2344322,823.992674,780.0732601,-0.020813,0.193481,0.991394,-1.009369,3.58139,3.603821,1,1,1,1,1,58.046875,
26:28.8,828.8278388,857.4358974,840.9157509,821.978022,792.1611722,-0.021851,0.194092,0.993225,-0.91217,3.140259,3.708496,1,1,1,1,1,58.046875,
26:29.1,828.8278388,848.5714286,842.5274725,814.3223443,828.8278388,-0.022034,0.193237,0.989258,-1.323395,3.678589,3.790741,1,1,1,1,1,58.046875,
26:29.9,828.8278388,844.1391941,855.018315,838.0952381,809.8901099,-0.017883,0.194519,0.984924,-1.42807,3.37204,3.641205,1,1,1,1,1,58.046875,
26:30.3,828.8278388,840.5128205,855.4212454,823.1868132,868.3150183,-0.018616,0.194641,0.990295,-1.211243,3.544006,3.895416,1,2,1,1,2,58.046875,
26:30.7,828.8278388,832.0512821,864.2857143,842.1245421,900.5494505,-0.022522,0.192627,0.992981,-1.158905,4.187012,4.299164,1,2,1,1,2,58.03125,
26:23.5,829.2307692,849.3772894,839.3040293,834.8717949,787.7289377,-0.029175,0.19397,0.991516,-1.046753,3.925323,3.985138,1,2,1,1,2,58.046875,
26:23.8,829.2307692,846.5567766,837.6923077,830.8424908,823.992674,-0.023621,0.194641,0.992188,-1.009369,2.968292,3.641205,1,1,1,1,1,58.046875,
26:24.2,829.2307692,841.3186813,877.5824176,834.4688645,916.2637363,-0.020447,0.195435,0.992859,-0.777588,3.820648,3.768311,1,1,1,1,1,58.046875,
26:25.9,829.2307692,844.5421245,824.3956044,822.7838828,812.3076923,-0.02063,0.193176,0.990723,-1.136475,3.566437,3.790741,1,1,1,1,1,58.046875,
26:26.3,829.2307692,841.7216117,813.5164835,824.7985348,817.9487179,-0.023987,0.194824,0.982544,-1.413116,3.573914,3.588867,1,1,1,1,1,58.046875,
26:26.7,829.2307692,840.9157509,815.5311355,826.4102564,790.1465201,-0.024231,0.19342,0.988037,-1.271057,3.446808,3.04306,1,1,1,1,1,58.046875,
26:30.3,829.2307692,848.1684982,821.5750916,824.7985348,756.3003663,-0.019958,0.194397,0.991699,-0.919647,3.626251,3.544006,1,2,1,1,2,58.046875,
26:30.8,829.2307692,856.2271062,880.4029304,821.978022,830.8424908,-0.018555,0.194519,0.984741,-1.286011,3.775787,3.259888,1,2,1,1,2,58.03125,
26:23.2,829.6336996,835.2747253,836.4835165,826.007326,807.8754579,-0.028931,0.191345,0.987427,-1.256104,4.254303,2.930908,1,1,1,1,1,58.046875,
26:23.8,829.6336996,844.5421245,807.0695971,832.4542125,792.1611722,-0.026001,0.193237,0.98761,-1.315918,2.83371,3.985138,1,2,1,1,2,58.046875,
26:24.0,829.6336996,845.7509158,817.5457875,827.6190476,795.3846154,-0.024231,0.193176,0.99292,-0.837402,3.035583,3.566437,1,1,1,1,1,58.046875,
26:24.2,829.6336996,846.5567766,842.9304029,828.4249084,825.6043956,-0.020447,0.195435,0.992859,-0.777588,3.820648,3.768311,1,1,1,1,1,58.046875,
26:24.5,829.6336996,848.974359,830.4395604,830.4395604,770,-0.019958,0.193176,0.990601,-1.226196,3.641205,3.626251,1,1,1,1,1,58.046875,
26:28.6,829.6336996,848.974359,814.7252747,830.4395604,790.1465201,-0.021057,0.192444,0.988037,-1.05423,3.349609,3.573914,1,1,1,1,1,58.046875,
26:24.0,830.03663,845.3479853,820.3663004,833.6630037,760.7326007,-0.024231,0.193176,0.99292,-0.837402,3.035583,3.566437,1,1,1,1,1,58.046875,
26:24.4,830.03663,856.6300366,855.4212454,829.2307692,799.4139194,-0.023315,0.191406,0.990112,-1.188812,3.469238,3.850555,1,1,1,1,1,58.046875,
26:24.9,830.03663,839.7069597,836.0805861,834.0659341,784.1025641,-0.018677,0.194092,0.990112,-1.136475,3.170166,3.282318,1,1,1,1,1,58.046875,
26:25.4,830.03663,844.9450549,832.0512821,835.2747253,819.1575092,-0.019104,0.195801,0.990662,-1.106567,3.491669,3.618774,1,1,1,1,1,58.046875,
26:25.4,830.03663,844.9450549,832.0512821,835.2747253,819.1575092,-0.019104,0.195801,0.990662,-1.106567,3.491669,3.618774,1,1,1,1,1,58.046875,
26:25.4,830.03663,844.9450549,832.0512821,835.2747253,819.1575092,-0.019104,0.195801,0.990662,-1.106567,3.491669,3.618774,1,1,1,1,1,58.046875,
26:25.4,830.03663,844.9450549,832.0512821,835.2747253,819.1575092,-0.019104,0.195801,0.990662,-1.106567,3.491669,3.618774,1,1,1,1,1,58.046875,
26:25.4,830.03663,844.9450549,832.0512821,835.2747253,819.1575092,-0.019104,0.195801,0.990662,-1.106567,3.491669,3.618774,1,1,1,1,1,58.046875,
26:25.4,830.03663,844.9450549,832.0512821,835.2747253,819.1575092,-0.019104,0.195801,0.990662,-1.106567,3.491669,3.618774,1,1,1,1,1,58.046875,
26:26.3,830.03663,832.8571429,845.3479853,833.6630037,840.5128205,-0.02124,0.19574,0.992126,-1.031799,3.431854,3.237457,1,1,1,1,1,58.046875,
26:26.4,830.03663,831.2454212,832.8571429,830.8424908,794.981685,-0.024841,0.19397,0.993652,-0.979462,3.386993,3.544006,1,1,1,1,1,58.046875,
26:26.7,830.03663,844.9450549,816.3369963,826.4102564,783.2967033,-0.02179,0.194641,0.98999,-1.226196,3.551483,3.648682,1,1,1,1,1,58.046875,
26:26.7,830.03663,844.9450549,816.3369963,826.4102564,783.2967033,-0.02179,0.194641,0.98999,-1.226196,3.551483,3.648682,1,1,1,1,1,58.046875,
26:26.7,830.03663,844.9450549,816.3369963,826.4102564,783.2967033,-0.02179,0.194641,0.98999,-1.226196,3.551483,3.648682,1,1,1,1,1,58.046875,
26:26.7,830.03663,844.9450549,816.3369963,826.4102564,783.2967033,-0.02179,0.194641,0.98999,-1.226196,3.551483,3.648682,1,1,1,1,1,58.046875,
26:26.7,830.03663,844.9450549,816.3369963,826.4102564,783.2967033,-0.02179,0.194641,0.98999,-1.226196,3.551483,3.648682,1,1,1,1,1,58.046875,
26:26.7,830.03663,844.9450549,816.3369963,826.4102564,783.2967033,-0.02179,0.194641,0.98999,-1.226196,3.551483,3.648682,1,1,1,1,1,58.046875,
26:26.9,830.03663,840.5128205,838.4981685,828.4249084,745.8241758,-0.024719,0.193542,0.990845,-1.024323,3.327179,3.753357,1,1,1,1,1,58.046875,
26:27.2,830.03663,845.7509158,888.8644689,833.2600733,939.2307692,-0.022705,0.194702,0.988586,-1.166382,3.289795,3.887939,1,1,1,1,1,58.046875,
26:28.1,830.03663,852.6007326,861.8681319,831.6483516,859.047619,-0.021057,0.192627,0.98999,-1.151428,3.521576,3.91037,1,1,1,1,1,58.046875,
26:30.7,830.03663,850.989011,884.029304,833.2600733,927.9487179,-0.018555,0.194519,0.984741,-1.286011,3.775787,3.259888,1,2,1,1,2,58.03125,
26:23.6,830.4395604,837.2893773,842.9304029,842.1245421,819.1575092,-0.030029,0.191833,0.991821,-1.188812,3.813171,3.656158,1,2,1,1,2,58.046875,
26:29.0,830.4395604,849.3772894,826.8131868,836.0805861,824.7985348,-0.022888,0.193604,0.991211,-1.106567,3.656158,2.938385,1,1,1,1,1,58.046875,
26:31.0,830.4395604,851.3919414,841.7216117,837.2893773,778.4615385,-0.023071,0.192627,0.989502,-1.547699,3.962708,3.39447,1,2,1,1,2,58.03125,
26:24.1,830.8424908,844.5421245,813.9194139,832.8571429,821.5750916,-0.020264,0.194458,0.991699,-1.338348,3.357086,3.843079,1,1,1,1,1,58.046875,
26:24.2,830.8424908,841.7216117,839.3040293,840.9157509,803.8461538,-0.020447,0.195435,0.992859,-0.777588,3.820648,3.768311,1,1,1,1,1,58.046875,
26:24.6,830.8424908,858.6446886,833.2600733,821.978022,802.6373626,-0.021606,0.193054,0.988159,-1.286011,3.37204,3.843079,1,1,1,1,1,58.046875,
26:25.7,830.8424908,859.8534799,820.7692308,827.2161172,803.8461538,-0.022888,0.193359,0.990906,-1.039276,3.39447,3.648682,1,1,1,1,1,58.046875,
26:25.8,830.8424908,848.5714286,817.5457875,829.2307692,785.7142857,-0.023438,0.19519,0.991028,-1.106567,3.686066,3.902893,1,1,1,1,1,58.046875,
26:26.2,830.8424908,850.5860806,816.7399267,837.2893773,762.7472527,-0.023438,0.19342,0.984802,-1.398163,3.641205,3.58139,1,1,1,1,1,58.046875,
26:26.6,830.8424908,842.1245421,821.5750916,836.4835165,811.0989011,-0.029663,0.192322,0.990417,-1.570129,3.970184,3.925323,1,1,1,1,1,58.046875,
26:26.8,830.8424908,846.959707,835.6776557,842.1245421,783.2967033,-0.026367,0.190674,0.989929,-0.91217,3.461761,4.276733,1,1,1,1,1,58.046875,
26:26.9,830.8424908,839.7069597,854.6153846,839.7069597,770.8058608,-0.024719,0.193542,0.990845,-1.024323,3.327179,3.753357,1,1,1,1,1,58.046875,
26:27.1,830.8424908,841.7216117,820.7692308,826.007326,776.8498168,-0.022644,0.19458,0.990723,-1.114044,3.424377,3.9328,1,1,1,1,1,58.046875,
26:29.0,830.8424908,840.5128205,821.5750916,835.6776557,785.7142857,-0.022888,0.193604,0.991211,-1.106567,3.656158,2.938385,1,1,1,1,1,58.046875,
26:23.2,831.2454212,855.4212454,828.021978,836.0805861,794.5787546,-0.023865,0.192444,0.990112,-1.495361,3.58139,3.297272,1,1,1,1,1,58.046875,
26:23.2,831.2454212,855.4212454,828.021978,836.0805861,794.5787546,-0.023865,0.192444,0.990112,-1.495361,3.58139,3.297272,1,1,1,1,1,58.046875,
26:23.2,831.2454212,855.4212454,828.021978,836.0805861,794.5787546,-0.023865,0.192444,0.990112,-1.495361,3.58139,3.297272,1,1,1,1,1,58.046875,
26:23.2,831.2454212,855.4212454,828.021978,836.0805861,794.5787546,-0.023865,0.192444,0.990112,-1.495361,3.58139,3.297272,1,1,1,1,1,58.046875,
26:23.2,831.2454212,855.4212454,828.021978,836.0805861,794.5787546,-0.023865,0.192444,0.990112,-1.495361,3.58139,3.297272,1,1,1,1,1,58.046875,
26:23.3,831.2454212,855.4212454,828.021978,836.0805861,794.5787546,-0.023865,0.192444,0.990112,-1.495361,3.58139,3.297272,1,1,1,1,1,58.046875,
26:23.5,831.2454212,857.032967,823.5897436,831.2454212,778.4615385,-0.029175,0.19397,0.991516,-1.046753,3.925323,3.985138,1,2,1,1,2,58.046875,
26:23.7,831.2454212,859.4505495,796.996337,836.8864469,788.9377289,-0.028198,0.193542,0.994812,-0.485992,3.028107,4.015045,1,2,1,1,2,58.046875,
26:23.8,831.2454212,852.6007326,845.3479853,831.2454212,840.1098901,-0.023621,0.194641,0.992188,-1.009369,2.968292,3.641205,1,1,1,1,1,58.046875,
26:24.2,831.2454212,845.7509158,848.974359,827.2161172,797.8021978,-0.020447,0.195435,0.992859,-0.777588,3.820648,3.768311,1,1,1,1,1,58.046875,
26:24.5,831.2454212,850.989011,848.974359,835.2747253,816.3369963,-0.019958,0.193176,0.990601,-1.226196,3.641205,3.626251,1,1,1,1,1,58.046875,
26:24.7,831.2454212,852.6007326,830.4395604,823.992674,784.9084249,-0.019592,0.195007,0.983826,-1.300964,3.783264,3.476715,1,1,1,1,1,58.046875,
26:24.8,831.2454212,852.1978022,835.6776557,830.03663,864.6886447,-0.024109,0.19397,0.993347,-0.837402,3.267365,4.127197,1,1,1,1,1,58.046875,
26:25.0,831.2454212,853.003663,824.7985348,842.9304029,840.1098901,-0.02417,0.190796,0.986023,-1.480408,3.813171,3.820648,1,1,1,1,1,58.046875,
26:25.3,831.2454212,846.1538462,812.3076923,836.8864469,810.2930403,-0.024902,0.192505,0.990662,-1.443024,3.940277,4.052429,1,1,1,1,1,58.046875,
26:27.1,831.2454212,860.2564103,806.6666667,822.7838828,766.3736264,-0.018921,0.195312,0.987671,-1.128998,3.192596,3.902893,1,1,1,1,1,58.046875,
26:27.6,831.2454212,864.2857143,901.3553114,827.2161172,886.043956,-0.020996,0.190979,0.982239,-1.659851,2.863617,3.775787,1,1,1,1,1,58.046875,
26:28.0,831.2454212,835.6776557,784.1025641,826.8131868,792.1611722,-0.018127,0.194946,0.992554,-1.084137,3.39447,3.730927,1,1,1,1,1,58.046875,
26:28.3,831.2454212,850.1831502,824.7985348,830.4395604,789.7435897,-0.023865,0.192505,0.987427,-1.278534,3.753357,3.74588,1,1,1,1,1,58.046875,
26:28.8,831.2454212,856.2271062,870.3296703,829.2307692,841.3186813,-0.021851,0.194092,0.993225,-0.91217,3.140259,3.708496,1,1,1,1,1,58.046875,
26:29.1,831.2454212,839.3040293,808.2783883,830.8424908,785.7142857,-0.022034,0.193237,0.989258,-1.323395,3.678589,3.790741,1,1,1,1,1,58.046875,
26:30.2,831.2454212,841.3186813,837.2893773,828.021978,782.4908425,-0.021667,0.193054,0.98938,-1.353302,3.858032,4.104767,1,2,1,1,2,58.046875,
26:30.7,831.2454212,850.1831502,850.5860806,832.4542125,877.1794872,-0.018555,0.194519,0.984741,-1.286011,3.775787,3.259888,1,2,1,1,2,58.03125,
26:23.5,831.6483516,850.5860806,863.4798535,844.9450549,832.8571429,-0.029175,0.19397,0.991516,-1.046753,3.925323,3.985138,1,2,1,1,2,58.046875,
26:25.0,831.6483516,839.7069597,816.7399267,832.0512821,809.8901099,-0.02417,0.190796,0.986023,-1.480408,3.813171,3.820648,1,1,1,1,1,58.046875,
26:25.6,831.6483516,848.974359,819.96337,829.2307692,779.2673993,-0.023071,0.193604,0.989563,-1.173859,3.820648,3.805695,1,1,1,1,1,58.046875,
26:25.6,831.6483516,848.974359,819.96337,829.2307692,779.2673993,-0.023071,0.193604,0.989563,-1.173859,3.820648,3.805695,1,1,1,1,1,58.046875,
26:25.6,831.6483516,848.974359,819.96337,829.2307692,779.2673993,-0.023071,0.193604,0.989563,-1.173859,3.820648,3.805695,1,1,1,1,1,58.046875,
26:25.6,831.6483516,848.974359,819.96337,829.2307692,779.2673993,-0.023071,0.193604,0.989563,-1.173859,3.820648,3.805695,1,1,1,1,1,58.046875,
26:25.6,831.6483516,848.974359,819.96337,829.2307692,779.2673993,-0.023071,0.193604,0.989563,-1.173859,3.820648,3.805695,1,1,1,1,1,58.046875,
26:25.6,831.6483516,848.974359,819.96337,829.2307692,779.2673993,-0.023071,0.193604,0.989563,-1.173859,3.820648,3.805695,1,1,1,1,1,58.046875,
26:25.6,831.6483516,845.3479853,823.992674,826.4102564,778.8644689,-0.023071,0.193604,0.989563,-1.173859,3.820648,3.805695,1,1,1,1,1,58.046875,
26:27.1,831.6483516,845.3479853,823.992674,827.2161172,762.7472527,-0.022644,0.19458,0.990723,-1.114044,3.424377,3.9328,1,1,1,1,1,58.046875,
26:27.1,831.6483516,842.9304029,827.6190476,832.4542125,780.8791209,-0.022705,0.194702,0.988586,-1.166382,3.289795,3.887939,1,1,1,1,1,58.046875,
26:30.8,831.6483516,838.9010989,877.5824176,832.8571429,860.6593407,-0.018555,0.194519,0.984741,-1.286011,3.775787,3.259888,1,2,1,1,2,58.03125,
26:23.4,832.0512821,846.5567766,830.03663,822.3809524,788.1318681,-0.027222,0.192993,0.992432,-0.934601,3.865509,3.760834,1,2,1,1,2,58.046875,
26:24.4,832.0512821,855.018315,842.1245421,827.6190476,769.5970696,-0.023315,0.191406,0.990112,-1.188812,3.469238,3.850555,1,1,1,1,1,58.046875,
26:25.4,832.0512821,846.1538462,808.2783883,823.1868132,812.3076923,-0.023682,0.1922,0.98877,-1.24115,3.588867,3.222504,1,1,1,1,1,58.046875,
26:26.0,832.0512821,846.959707,838.9010989,838.4981685,877.1794872,-0.024841,0.191711,0.990417,-1.121521,4.037476,3.454285,1,1,1,1,1,58.046875,
26:26.5,832.0512821,844.9450549,838.9010989,835.6776557,790.5494505,-0.021973,0.193726,0.985962,-1.555176,3.401947,3.775787,1,1,1,1,1,58.046875,
26:26.5,832.0512821,844.9450549,838.9010989,835.6776557,790.5494505,-0.021973,0.193726,0.985962,-1.555176,3.401947,3.775787,1,1,1,1,1,58.046875,
26:26.5,832.0512821,844.9450549,838.9010989,835.6776557,790.5494505,-0.021973,0.193726,0.985962,-1.555176,3.401947,3.775787,1,1,1,1,1,58.046875,
26:26.5,832.0512821,844.9450549,838.9010989,835.6776557,790.5494505,-0.021973,0.193726,0.985962,-1.555176,3.401947,3.775787,1,1,1,1,1,58.046875,
26:26.5,832.0512821,844.9450549,838.9010989,835.6776557,790.5494505,-0.021973,0.193726,0.985962,-1.555176,3.401947,3.775787,1,1,1,1,1,58.046875,
26:26.5,832.0512821,844.9450549,838.9010989,835.6776557,790.5494505,-0.021973,0.193726,0.985962,-1.555176,3.401947,3.775787,1,1,1,1,1,58.046875,
26:26.7,832.0512821,832.0512821,820.7692308,831.2454212,792.967033,-0.024231,0.19342,0.988037,-1.271057,3.446808,3.04306,1,1,1,1,1,58.046875,
26:28.4,832.0512821,850.1831502,846.959707,824.3956044,905.7875458,-0.019348,0.193542,0.996765,-0.650482,3.74588,3.603821,1,1,1,1,1,58.046875,
26:28.8,832.0512821,846.5567766,879.5970696,842.5274725,913.8461538,-0.018005,0.194031,0.985474,-1.390686,3.147736,3.775787,1,1,1,1,1,58.046875,
26:30.3,832.0512821,855.4212454,828.4249084,833.6630037,765.1648352,-0.021667,0.193054,0.98938,-1.353302,3.858032,4.104767,1,2,1,1,2,58.046875,
26:30.7,832.0512821,833.6630037,888.8644689,838.9010989,899.3406593,-0.022522,0.192627,0.992981,-1.158905,4.187012,4.299164,1,2,1,1,2,58.03125,
26:30.8,832.0512821,845.7509158,882.8205128,838.9010989,909.010989,-0.018555,0.194519,0.984741,-1.286011,3.775787,3.259888,1,2,1,1,2,58.03125,
26:31.0,832.0512821,849.3772894,865.8974359,844.1391941,918.2783883,-0.023071,0.192627,0.989502,-1.547699,3.962708,3.39447,1,2,1,1,2,58.03125,
26:23.4,832.4542125,849.3772894,834.8717949,824.7985348,815.9340659,-0.027222,0.192993,0.992432,-0.934601,3.865509,3.760834,1,2,1,1,2,58.046875,
26:24.2,832.4542125,847.7655678,827.6190476,829.2307692,770,-0.027832,0.194214,0.990723,-1.286011,3.753357,4.314117,1,1,1,1,1,58.046875,
26:24.5,832.4542125,848.5714286,870.7326007,824.3956044,800.6227106,-0.023315,0.191406,0.990112,-1.188812,3.469238,3.850555,1,1,1,1,1,58.046875,
26:24.5,832.4542125,848.5714286,870.7326007,824.3956044,800.6227106,-0.023315,0.191406,0.990112,-1.188812,3.469238,3.850555,1,1,1,1,1,58.046875,
26:24.5,832.4542125,848.5714286,870.7326007,824.3956044,800.6227106,-0.023315,0.191406,0.990112,-1.188812,3.469238,3.850555,1,1,1,1,1,58.046875,
26:24.5,832.4542125,848.5714286,870.7326007,824.3956044,800.6227106,-0.023315,0.191406,0.990112,-1.188812,3.469238,3.850555,1,1,1,1,1,58.046875,
26:24.5,832.4542125,848.5714286,870.7326007,824.3956044,800.6227106,-0.023315,0.191406,0.990112,-1.188812,3.469238,3.850555,1,1,1,1,1,58.046875,
26:24.5,832.4542125,848.5714286,870.7326007,824.3956044,800.6227106,-0.023315,0.191406,0.990112,-1.188812,3.469238,3.850555,1,1,1,1,1,58.046875,
26:26.3,832.4542125,842.5274725,837.2893773,830.8424908,787.7289377,-0.021973,0.197388,0.991211,-1.211243,4.134674,4.022522,1,1,1,1,1,58.046875,
26:26.7,832.4542125,849.7802198,827.2161172,836.8864469,803.4432234,-0.02179,0.194641,0.98999,-1.226196,3.551483,3.648682,1,1,1,1,1,58.046875,
26:28.3,832.4542125,849.7802198,882.4175824,842.5274725,926.7399267,-0.023865,0.192505,0.987427,-1.278534,3.753357,3.74588,1,1,1,1,1,58.046875,
26:28.3,832.4542125,849.7802198,882.4175824,842.5274725,926.7399267,-0.023865,0.192505,0.987427,-1.278534,3.753357,3.74588,1,1,1,1,1,58.046875,
26:28.3,832.4542125,849.7802198,882.4175824,842.5274725,926.7399267,-0.023865,0.192505,0.987427,-1.278534,3.753357,3.74588,1,1,1,1,1,58.046875,
26:28.3,832.4542125,849.7802198,882.4175824,842.5274725,926.7399267,-0.023865,0.192505,0.987427,-1.278534,3.753357,3.74588,1,1,1,1,1,58.046875,
26:28.3,832.4542125,849.7802198,882.4175824,842.5274725,926.7399267,-0.023865,0.192505,0.987427,-1.278534,3.753357,3.74588,1,1,1,1,1,58.046875,
26:28.3,832.4542125,849.7802198,882.4175824,842.5274725,926.7399267,-0.023865,0.192505,0.987427,-1.278534,3.753357,3.74588,1,1,1,1,1,58.046875,
26:28.7,832.4542125,846.1538462,817.5457875,832.0512821,813.1135531,-0.023376,0.194336,0.993347,-0.964508,4.044952,4.134674,1,1,1,1,1,58.046875,
26:28.8,832.4542125,846.1538462,829.6336996,832.4542125,773.2234432,-0.021851,0.194092,0.993225,-0.91217,3.140259,3.708496,1,1,1,1,1,58.046875,
26:31.4,832.4542125,855.8241758,821.1721612,823.5897436,799.010989,-0.020325,0.19458,0.99115,-1.151428,3.686066,3.880463,1,1,1,1,1,58.03125,
26:23.0,832.8571429,852.6007326,811.5018315,831.2454212,750.6593407,-0.02124,0.195557,0.985229,-1.585083,3.708496,4.037476,1,1,1,1,1,58.046875,
26:23.5,832.8571429,860.6593407,842.5274725,836.0805861,796.996337,-0.029175,0.19397,0.991516,-1.046753,3.925323,3.985138,1,2,1,1,2,58.046875,
26:24.2,832.8571429,839.3040293,841.7216117,839.7069597,778.0586081,-0.020447,0.195435,0.992859,-0.777588,3.820648,3.768311,1,1,1,1,1,58.046875,
26:24.3,832.8571429,848.1684982,832.8571429,833.2600733,823.5897436,-0.019897,0.194946,0.99115,-1.128998,3.18512,3.469238,1,1,1,1,1,58.046875,
26:24.7,832.8571429,844.5421245,836.4835165,830.4395604,793.3699634,-0.024597,0.192444,0.990662,-1.308441,3.872986,3.656158,1,1,1,1,1,58.046875,
26:26.5,832.8571429,849.7802198,836.8864469,830.03663,789.3406593,-0.021973,0.193726,0.985962,-1.555176,3.401947,3.775787,1,1,1,1,1,58.046875,
26:26.7,832.8571429,848.5714286,815.5311355,834.8717949,819.5604396,-0.02179,0.194641,0.98999,-1.226196,3.551483,3.648682,1,1,1,1,1,58.046875,
26:27.0,832.8571429,838.0952381,851.7948718,832.4542125,791.3553114,-0.022644,0.19458,0.990723,-1.114044,3.424377,3.9328,1,1,1,1,1,58.046875,
26:30.3,832.8571429,840.5128205,829.2307692,834.8717949,794.1758242,-0.021667,0.193054,0.98938,-1.353302,3.858032,4.104767,1,2,1,1,2,58.046875,
26:30.3,832.8571429,842.9304029,869.9267399,834.0659341,814.3223443,-0.018616,0.194641,0.990295,-1.211243,3.544006,3.895416,1,2,1,1,2,58.046875,
26:30.8,832.8571429,840.1098901,835.6776557,836.4835165,809.8901099,-0.019165,0.194275,0.995483,-0.934601,3.476715,3.611298,1,2,1,1,2,58.03125,
26:31.7,832.8571429,855.8241758,870.7326007,834.0659341,905.7875458,-0.018921,0.193481,0.988098,-1.143951,3.252411,3.37204,1,1,1,1,1,58.03125,
26:23.3,833.2600733,852.6007326,859.8534799,835.2747253,800.6227106,-0.023865,0.192444,0.990112,-1.495361,3.58139,3.297272,1,1,1,1,1,58.046875,
26:24.5,833.2600733,845.7509158,875.5677656,832.0512821,846.959707,-0.023315,0.191406,0.990112,-1.188812,3.469238,3.850555,1,1,1,1,1,58.046875,
26:25.3,833.2600733,846.1538462,800.2197802,837.2893773,792.5641026,-0.024902,0.192505,0.990662,-1.443024,3.940277,4.052429,1,1,1,1,1,58.046875,
26:25.4,833.2600733,841.7216117,821.978022,835.6776557,808.2783883,-0.023682,0.1922,0.98877,-1.24115,3.588867,3.222504,1,1,1,1,1,58.046875,
26:25.6,833.2600733,847.3626374,816.3369963,827.2161172,800.2197802,-0.023071,0.193604,0.989563,-1.173859,3.820648,3.805695,1,1,1,1,1,58.046875,
26:25.8,833.2600733,843.3333333,824.3956044,836.8864469,846.5567766,-0.023438,0.19519,0.991028,-1.106567,3.686066,3.902893,1,1,1,1,1,58.046875,
26:25.9,833.2600733,847.3626374,826.007326,834.8717949,783.2967033,-0.02063,0.193176,0.990723,-1.136475,3.566437,3.790741,1,1,1,1,1,58.046875,
26:26.3,833.2600733,842.5274725,839.7069597,820.3663004,840.1098901,-0.021973,0.197388,0.991211,-1.211243,4.134674,4.022522,1,1,1,1,1,58.046875,
26:26.4,833.2600733,840.9157509,818.3516484,827.6190476,800.2197802,-0.024841,0.19397,0.993652,-0.979462,3.386993,3.544006,1,1,1,1,1,58.046875,
26:27.1,833.2600733,844.9450549,871.9413919,840.5128205,867.1062271,-0.022705,0.194702,0.988586,-1.166382,3.289795,3.887939,1,1,1,1,1,58.046875,
26:28.6,833.2600733,850.1831502,830.4395604,830.4395604,792.5641026,-0.021057,0.192444,0.988037,-1.05423,3.349609,3.573914,1,1,1,1,1,58.046875,
26:29.4,833.2600733,829.2307692,832.4542125,840.5128205,801.025641,-0.020691,0.194214,0.987915,-0.91217,3.18512,4.007568,1,1,1,1,1,58.046875,
26:29.8,833.2600733,853.003663,864.6886447,835.2747253,818.7545788,-0.01825,0.196716,0.979187,-1.540222,3.297272,3.805695,1,1,1,1,1,58.046875,
26:30.8,833.2600733,848.5714286,865.4945055,838.9010989,915.0549451,-0.018555,0.194519,0.984741,-1.286011,3.775787,3.259888,1,2,1,1,2,58.03125,
26:31.1,833.2600733,859.8534799,840.1098901,819.1575092,886.8498168,-0.015564,0.195435,0.98999,-1.271057,3.506622,2.953339,1,1,1,1,1,58.03125,
26:31.3,833.2600733,851.3919414,803.8461538,824.7985348,804.6520147,-0.020325,0.19458,0.99115,-1.151428,3.686066,3.880463,1,1,1,1,1,58.03125,
26:31.7,833.2600733,850.5860806,868.3150183,827.6190476,862.6739927,-0.021118,0.193542,0.988953,-1.457977,3.005676,4.067383,1,1,1,1,1,58.03125,
26:23.1,833.6630037,854.6153846,844.1391941,838.0952381,795.7875458,-0.022766,0.19928,0.997864,-0.426178,3.424377,3.603821,1,1,1,1,1,58.046875,
26:23.3,833.6630037,847.7655678,842.1245421,840.9157509,821.5750916,-0.023865,0.192444,0.990112,-1.495361,3.58139,3.297272,1,1,1,1,1,58.046875,
26:23.5,833.6630037,855.4212454,832.0512821,836.4835165,844.9450549,-0.02655,0.193665,0.98645,-1.031799,3.843079,3.850555,1,2,1,1,2,58.046875,
26:24.4,833.6630037,856.2271062,835.2747253,833.2600733,775.2380952,-0.021912,0.192017,0.990051,-1.42807,3.476715,4.052429,1,1,1,1,1,58.046875,
26:24.7,833.6630037,844.9450549,829.6336996,832.0512821,783.6996337,-0.024597,0.192444,0.990662,-1.308441,3.872986,3.656158,1,1,1,1,1,58.046875,
26:25.0,833.6630037,835.6776557,823.1868132,832.0512821,780.0732601,-0.021729,0.194214,0.990967,-1.114044,3.887939,4.022522,1,1,1,1,1,58.046875,
26:25.2,833.6630037,842.1245421,802.2344322,830.03663,787.3260073,-0.02063,0.193054,0.988281,-0.904694,3.573914,3.693542,1,1,1,1,1,58.046875,
26:25.7,833.6630037,859.8534799,830.03663,830.03663,761.1355311,-0.023438,0.19397,0.991211,-1.061707,3.611298,3.715973,1,1,1,1,1,58.046875,
26:26.6,833.6630037,840.1098901,838.9010989,837.2893773,808.6813187,-0.029663,0.192322,0.990417,-1.570129,3.970184,3.925323,1,1,1,1,1,58.046875,
26:27.0,833.6630037,842.5274725,829.2307692,829.6336996,759.5238095,-0.022644,0.19458,0.990723,-1.114044,3.424377,3.9328,1,1,1,1,1,58.046875,
26:27.5,833.6630037,827.2161172,868.7179487,829.6336996,924.3223443,-0.017273,0.198914,0.991577,-1.188812,3.947754,3.9328,1,1,1,1,1,58.046875,
26:27.5,833.6630037,839.7069597,834.4688645,835.6776557,812.7106227,-0.017273,0.198914,0.991577,-1.188812,3.947754,3.9328,1,1,1,1,1,58.046875,
26:29.5,833.6630037,846.5567766,832.4542125,837.6923077,770,-0.020996,0.197937,0.988586,-1.59256,2.841187,3.783264,1,1,1,1,1,58.046875,
26:23.5,834.0659341,847.3626374,848.974359,840.1098901,807.4725275,-0.029053,0.193604,0.991638,-1.256104,3.424377,3.671112,1,2,1,1,2,58.046875,
26:23.7,834.0659341,844.9450549,788.1318681,837.6923077,791.7582418,-0.028198,0.193542,0.994812,-0.485992,3.028107,4.015045,1,2,1,1,2,58.046875,
26:23.7,834.0659341,849.3772894,813.5164835,838.4981685,783.6996337,-0.028198,0.193542,0.994812,-0.485992,3.028107,4.015045,1,2,1,1,2,58.046875,
26:24.2,834.0659341,851.3919414,841.3186813,834.4688645,790.952381,-0.020447,0.195435,0.992859,-0.777588,3.820648,3.768311,1,1,1,1,1,58.046875,
26:24.4,834.0659341,845.3479853,844.9450549,833.6630037,819.5604396,-0.021912,0.192017,0.990051,-1.42807,3.476715,4.052429,1,1,1,1,1,58.046875,
26:25.1,834.0659341,848.1684982,853.003663,835.2747253,808.2783883,-0.019043,0.193054,0.98999,-1.398163,3.446808,3.91037,1,1,1,1,1,58.046875,
26:25.8,834.0659341,843.7362637,832.4542125,833.6630037,804.2490842,-0.022034,0.19342,0.989807,-1.158905,3.58139,3.686066,1,1,1,1,1,58.046875,
26:26.3,834.0659341,834.8717949,857.032967,841.3186813,919.4871795,-0.021973,0.197388,0.991211,-1.211243,4.134674,4.022522,1,1,1,1,1,58.046875,
26:26.7,834.0659341,846.959707,824.3956044,838.4981685,854.2124542,-0.024231,0.19342,0.988037,-1.271057,3.446808,3.04306,1,1,1,1,1,58.046875,
26:26.7,834.0659341,850.1831502,827.2161172,843.7362637,863.4798535,-0.024231,0.19342,0.988037,-1.271057,3.446808,3.04306,1,1,1,1,1,58.046875,
26:27.1,834.0659341,844.1391941,835.2747253,826.4102564,780.8791209,-0.022644,0.19458,0.990723,-1.114044,3.424377,3.9328,1,1,1,1,1,58.046875,
26:28.8,834.0659341,859.4505495,886.8498168,836.0805861,898.1318681,-0.021851,0.194092,0.993225,-0.91217,3.140259,3.708496,1,1,1,1,1,58.046875,
26:29.2,834.0659341,841.3186813,819.5604396,842.5274725,782.8937729,-0.022583,0.193604,0.989563,-0.897217,3.573914,3.701019,1,1,1,1,1,58.046875,
26:30.4,834.0659341,846.1538462,890.8791209,846.1538462,915.4578755,-0.023926,0.191467,0.992676,-1.173859,3.611298,3.439331,1,2,1,1,2,58.03125,
26:31.3,834.0659341,846.959707,814.7252747,828.021978,844.1391941,-0.020325,0.19458,0.99115,-1.151428,3.686066,3.880463,1,1,1,1,1,58.03125,
26:31.4,834.0659341,859.8534799,832.8571429,834.4688645,866.3003663,-0.020325,0.19458,0.99115,-1.151428,3.686066,3.880463,1,1,1,1,1,58.03125,
26:23.0,834.4688645,847.7655678,812.3076923,830.03663,783.6996337,-0.02124,0.195557,0.985229,-1.585083,3.708496,4.037476,1,1,1,1,1,58.046875,
26:23.3,834.4688645,849.3772894,839.3040293,828.8278388,779.6703297,-0.023865,0.192444,0.990112,-1.495361,3.58139,3.297272,1,1,1,1,1,58.046875,
26:24.0,834.4688645,843.3333333,821.5750916,828.8278388,812.7106227,-0.024231,0.193176,0.99292,-0.837402,3.035583,3.566437,1,1,1,1,1,58.046875,
26:27.1,834.4688645,860.6593407,812.3076923,833.6630037,813.9194139,-0.022705,0.194702,0.988586,-1.166382,3.289795,3.887939,1,1,1,1,1,58.046875,
26:28.3,834.4688645,854.2124542,885.6410256,842.9304029,887.2527473,-0.023865,0.192505,0.987427,-1.278534,3.753357,3.74588,1,1,1,1,1,58.046875,
26:30.7,834.4688645,848.5714286,871.9413919,832.8571429,860.6593407,-0.018555,0.194519,0.984741,-1.286011,3.775787,3.259888,1,2,1,1,2,58.03125,
26:23.0,834.8717949,846.1538462,852.1978022,839.7069597,881.6117216,-0.02124,0.195557,0.985229,-1.585083,3.708496,4.037476,1,1,1,1,1,58.046875,
26:23.0,834.8717949,851.3919414,830.8424908,829.2307692,805.0549451,-0.02124,0.195557,0.985229,-1.585083,3.708496,4.037476,1,1,1,1,1,58.046875,
26:23.1,834.8717949,846.959707,827.6190476,833.2600733,793.7728938,-0.025757,0.192383,0.986267,-1.218719,3.364563,4.09729,1,1,1,1,1,58.046875,
26:23.2,834.8717949,849.7802198,821.1721612,828.021978,788.9377289,-0.028931,0.191345,0.987427,-1.256104,4.254303,2.930908,1,1,1,1,1,58.046875,
26:23.2,834.8717949,850.1831502,832.4542125,831.2454212,798.2051282,-0.023865,0.192444,0.990112,-1.495361,3.58139,3.297272,1,1,1,1,1,58.046875,
26:23.3,834.8717949,855.8241758,844.5421245,839.7069597,802.6373626,-0.028381,0.19165,0.989075,-1.24115,3.431854,3.955231,1,1,1,1,1,58.046875,
26:23.3,834.8717949,848.5714286,846.5567766,838.9010989,832.8571429,-0.028381,0.19165,0.989075,-1.24115,3.431854,3.955231,1,1,1,1,1,58.046875,
26:23.4,834.8717949,848.5714286,835.6776557,827.2161172,772.014652,-0.027222,0.192993,0.992432,-0.934601,3.865509,3.760834,1,2,1,1,2,58.046875,
26:23.8,834.8717949,840.9157509,840.5128205,829.6336996,792.1611722,-0.026001,0.193237,0.98761,-1.315918,2.83371,3.985138,1,1,1,1,1,58.046875,
26:24.2,834.8717949,835.6776557,855.018315,842.1245421,873.1501832,-0.020447,0.195435,0.992859,-0.777588,3.820648,3.768311,1,1,1,1,1,58.046875,
26:24.5,834.8717949,853.003663,869.1208791,840.5128205,807.0695971,-0.023315,0.191406,0.990112,-1.188812,3.469238,3.850555,1,1,1,1,1,58.046875,
26:24.7,834.8717949,847.7655678,838.9010989,842.9304029,833.2600733,-0.024597,0.192444,0.990662,-1.308441,3.872986,3.656158,1,1,1,1,1,58.046875,
26:24.7,834.8717949,847.3626374,826.4102564,824.7985348,797.3992674,-0.019592,0.195007,0.983826,-1.300964,3.783264,3.476715,1,1,1,1,1,58.046875,
26:25.0,834.8717949,840.9157509,847.7655678,845.7509158,825.6043956,-0.02417,0.190796,0.986023,-1.480408,3.813171,3.820648,1,1,1,1,1,58.046875,
26:25.1,834.8717949,852.1978022,820.7692308,834.4688645,815.5311355,-0.021912,0.193848,0.994263,-0.672913,3.424377,3.476715,1,1,1,1,1,58.046875,
26:25.1,834.8717949,837.6923077,827.2161172,828.8278388,810.6959707,-0.019043,0.193054,0.98999,-1.398163,3.446808,3.91037,1,1,1,1,1,58.046875,
26:26.0,834.8717949,854.2124542,821.1721612,837.6923077,768.3882784,-0.021729,0.193604,0.985413,-1.338348,3.872986,3.53653,1,1,1,1,1,58.046875,
26:26.1,834.8717949,852.6007326,814.7252747,842.1245421,784.1025641,-0.025818,0.194885,0.98999,-1.26358,3.424377,4.224396,1,1,1,1,1,58.046875,
26:26.3,834.8717949,841.3186813,831.6483516,834.4688645,809.4871795,-0.023987,0.194824,0.982544,-1.413116,3.573914,3.588867,1,1,1,1,1,58.046875,
26:26.4,834.8717949,842.1245421,842.9304029,833.6630037,834.4688645,-0.021973,0.193726,0.985962,-1.555176,3.401947,3.775787,1,1,1,1,1,58.046875,
26:29.0,834.8717949,836.4835165,836.4835165,832.4542125,786.9230769,-0.022888,0.193604,0.991211,-1.106567,3.656158,2.938385,1,1,1,1,1,58.046875,
26:29.0,834.8717949,848.974359,874.3589744,838.0952381,834.4688645,-0.022888,0.193604,0.991211,-1.106567,3.656158,2.938385,1,1,1,1,1,58.046875,
26:30.2,834.8717949,853.003663,826.007326,834.8717949,764.7619048,-0.021667,0.193054,0.98938,-1.353302,3.858032,4.104767,1,2,1,1,2,58.046875,
26:23.0,835.2747253,844.5421245,815.9340659,840.1098901,805.4578755,-0.026611,0.195679,0.993652,-0.710297,3.783264,2.69165,1,1,1,1,1,58.046875,
26:23.0,835.2747253,844.1391941,828.4249084,822.3809524,732.9304029,-0.02124,0.195557,0.985229,-1.585083,3.708496,4.037476,1,1,1,1,1,58.046875,
26:23.5,835.2747253,855.8241758,822.7838828,834.4688645,779.6703297,-0.029175,0.19397,0.991516,-1.046753,3.925323,3.985138,1,2,1,1,2,58.046875,
26:23.8,835.2747253,848.1684982,800.2197802,834.8717949,822.7838828,-0.026001,0.193237,0.98761,-1.315918,2.83371,3.985138,1,2,1,1,2,58.046875,
26:24.1,835.2747253,842.1245421,812.3076923,832.8571429,773.6263736,-0.020264,0.194458,0.991699,-1.338348,3.357086,3.843079,1,1,1,1,1,58.046875,
26:24.1,835.2747253,842.1245421,846.1538462,833.6630037,883.2234432,-0.023865,0.192627,0.986084,-1.046753,3.588867,3.738403,1,1,1,1,1,58.046875,
26:24.3,835.2747253,848.5714286,837.6923077,832.0512821,773.2234432,-0.019897,0.194946,0.99115,-1.128998,3.18512,3.469238,1,1,1,1,1,58.046875,
26:24.5,835.2747253,846.1538462,873.5531136,835.2747253,856.6300366,-0.023315,0.191406,0.990112,-1.188812,3.469238,3.850555,1,1,1,1,1,58.046875,
26:25.2,835.2747253,840.9157509,804.6520147,832.4542125,768.7912088,-0.02063,0.193054,0.988281,-0.904694,3.573914,3.693542,1,1,1,1,1,58.046875,
26:26.1,835.2747253,847.3626374,827.2161172,838.0952381,774.029304,-0.019348,0.195374,0.989685,-0.822449,4.059906,3.596344,1,1,1,1,1,58.046875,
26:26.3,835.2747253,838.9010989,848.974359,848.974359,840.1098901,-0.023987,0.194824,0.982544,-1.413116,3.573914,3.588867,1,1,1,1,1,58.046875,
26:26.4,835.2747253,837.6923077,836.0805861,832.8571429,783.6996337,-0.021973,0.193726,0.985962,-1.555176,3.401947,3.775787,1,1,1,1,1,58.046875,
26:26.8,835.2747253,841.7216117,852.6007326,846.5567766,791.7582418,-0.026367,0.190674,0.989929,-0.91217,3.461761,4.276733,1,1,1,1,1,58.046875,
26:27.1,835.2747253,857.4358974,817.9487179,828.021978,810.2930403,-0.022644,0.19458,0.990723,-1.114044,3.424377,3.9328,1,1,1,1,1,58.046875,
26:29.7,835.2747253,840.9157509,827.6190476,842.5274725,782.0879121,-0.020325,0.195435,0.992432,-0.994415,3.872986,4.022522,1,1,1,1,1,58.046875,
26:30.4,835.2747253,839.3040293,841.3186813,835.6776557,749.4505495,-0.023926,0.191467,0.992676,-1.173859,3.611298,3.439331,1,2,1,1,2,58.03125,
26:30.7,835.2747253,844.1391941,850.989011,837.2893773,875.1648352,-0.022522,0.192627,0.992981,-1.158905,4.187012,4.299164,1,2,1,1,2,58.03125,
26:31.1,835.2747253,869.1208791,868.7179487,824.7985348,896.1172161,-0.023071,0.192627,0.989502,-1.547699,3.962708,3.39447,1,1,1,1,1,58.03125,
26:31.1,835.2747253,860.6593407,831.6483516,816.3369963,811.0989011,-0.015564,0.195435,0.98999,-1.271057,3.506622,2.953339,1,1,1,1,1,58.03125,
26:31.7,835.2747253,848.5714286,871.5384615,831.2454212,904.5787546,-0.018921,0.193481,0.988098,-1.143951,3.252411,3.37204,1,1,1,1,1,58.03125,
26:31.8,835.2747253,854.6153846,820.3663004,837.6923077,828.021978,-0.016602,0.197388,0.991577,-1.091614,3.977661,3.416901,1,1,1,1,1,58.03125,
26:23.3,835.6776557,840.5128205,826.8131868,831.6483516,777.2527473,-0.023865,0.192444,0.990112,-1.495361,3.58139,3.297272,1,1,1,1,1,58.046875,
26:23.6,835.6776557,851.3919414,805.4578755,832.8571429,812.3076923,-0.030029,0.191833,0.991821,-1.188812,3.813171,3.656158,1,2,1,1,2,58.046875,
26:24.2,835.6776557,847.7655678,832.4542125,842.5274725,778.4615385,-0.027832,0.194214,0.990723,-1.286011,3.753357,4.314117,1,1,1,1,1,58.046875,
26:24.7,835.6776557,848.974359,842.5274725,827.2161172,804.6520147,-0.019592,0.195007,0.983826,-1.300964,3.783264,3.476715,1,1,1,1,1,58.046875,
26:25.1,835.6776557,851.3919414,818.7545788,836.0805861,812.7106227,-0.019043,0.193054,0.98999,-1.398163,3.446808,3.91037,1,1,1,1,1,58.046875,
26:26.5,835.6776557,842.5274725,854.2124542,838.9010989,891.6849817,-0.021973,0.193726,0.985962,-1.555176,3.401947,3.775787,1,1,1,1,1,58.046875,
26:26.9,835.6776557,849.7802198,852.6007326,840.5128205,784.1025641,-0.024719,0.193542,0.990845,-1.024323,3.327179,3.753357,1,1,1,1,1,58.046875,
26:27.0,835.6776557,834.0659341,842.1245421,837.6923077,820.7692308,-0.022644,0.19458,0.990723,-1.114044,3.424377,3.9328,1,1,1,1,1,58.046875,
26:29.4,835.6776557,821.978022,864.2857143,849.3772894,836.0805861,-0.020691,0.194214,0.987915,-0.91217,3.18512,4.007568,1,1,1,1,1,58.046875,
26:31.0,835.6776557,853.8095238,885.6410256,840.9157509,923.9194139,-0.023071,0.192627,0.989502,-1.547699,3.962708,3.39447,1,2,1,1,2,58.03125,
26:31.1,835.6776557,866.3003663,840.9157509,818.7545788,842.5274725,-0.023071,0.192627,0.989502,-1.547699,3.962708,3.39447,1,1,1,1,1,58.03125,
26:31.3,835.6776557,853.8095238,815.1282051,826.8131868,753.8827839,-0.020325,0.19458,0.99115,-1.151428,3.686066,3.880463,1,1,1,1,1,58.03125,
26:23.0,836.0805861,846.1538462,832.8571429,838.0952381,872.3443223,-0.026611,0.195679,0.993652,-0.710297,3.783264,2.69165,1,1,1,1,1,58.046875,
26:23.5,836.0805861,848.1684982,852.6007326,832.0512821,772.8205128,-0.029053,0.193604,0.991638,-1.256104,3.424377,3.671112,1,2,1,1,2,58.046875,
26:23.8,836.0805861,858.6446886,807.8754579,827.2161172,790.1465201,-0.026001,0.193237,0.98761,-1.315918,2.83371,3.985138,1,1,1,1,1,58.046875,
26:23.9,836.0805861,845.3479853,822.7838828,840.1098901,764.3589744,-0.022949,0.194763,0.990479,-1.383209,3.319702,3.671112,1,1,1,1,1,58.046875,
26:24.1,836.0805861,840.9157509,818.7545788,829.6336996,791.3553114,-0.023865,0.192627,0.986084,-1.046753,3.588867,3.738403,1,1,1,1,1,58.046875,
26:25.0,836.0805861,842.1245421,827.2161172,840.5128205,837.6923077,-0.021729,0.194214,0.990967,-1.114044,3.887939,4.022522,1,1,1,1,1,58.046875,
26:25.5,836.0805861,851.7948718,811.9047619,830.03663,794.5787546,-0.021423,0.19342,0.988342,-1.061707,3.648682,3.686066,1,1,1,1,1,58.046875,
26:25.5,836.0805861,851.7948718,811.9047619,830.03663,794.5787546,-0.021423,0.19342,0.988342,-1.061707,3.648682,3.686066,1,1,1,1,1,58.046875,
26:25.5,836.0805861,851.7948718,811.9047619,830.03663,794.5787546,-0.021423,0.19342,0.988342,-1.061707,3.648682,3.686066,1,1,1,1,1,58.046875,
26:25.5,836.0805861,851.7948718,811.9047619,830.03663,794.5787546,-0.021423,0.19342,0.988342,-1.061707,3.648682,3.686066,1,1,1,1,1,58.046875,
26:25.5,836.0805861,851.7948718,811.9047619,830.03663,794.5787546,-0.021423,0.19342,0.988342,-1.061707,3.648682,3.686066,1,1,1,1,1,58.046875,
26:25.5,836.0805861,851.7948718,811.9047619,830.03663,794.5787546,-0.021423,0.19342,0.988342,-1.061707,3.648682,3.686066,1,1,1,1,1,58.046875,
26:26.2,836.0805861,842.1245421,807.4725275,826.007326,794.981685,-0.023438,0.19342,0.984802,-1.398163,3.641205,3.58139,1,1,1,1,1,58.046875,
26:27.1,836.0805861,828.8278388,814.7252747,821.5750916,778.4615385,-0.018921,0.195312,0.987671,-1.128998,3.192596,3.902893,1,1,1,1,1,58.046875,
26:29.4,836.0805861,826.4102564,855.4212454,857.032967,874.3589744,-0.020691,0.194214,0.987915,-0.91217,3.18512,4.007568,1,1,1,1,1,58.046875,
26:29.5,836.0805861,844.9450549,833.6630037,845.7509158,820.7692308,-0.020996,0.197937,0.988586,-1.59256,2.841187,3.783264,1,1,1,1,1,58.046875,
26:30.1,836.0805861,849.7802198,832.4542125,824.7985348,794.5787546,-0.017761,0.193848,0.988159,-1.278534,3.349609,2.781372,1,2,1,1,2,58.046875,
26:31.4,836.0805861,850.1831502,811.9047619,828.021978,772.4175824,-0.020325,0.19458,0.99115,-1.151428,3.686066,3.880463,1,1,1,1,1,58.03125,
26:23.1,836.4835165,844.9450549,828.021978,838.4981685,798.2051282,-0.022766,0.19928,0.997864,-0.426178,3.424377,3.603821,1,1,1,1,1,58.046875,
26:24.2,836.4835165,852.1978022,826.8131868,843.7362637,815.1282051,-0.027832,0.194214,0.990723,-1.286011,3.753357,4.314117,1,1,1,1,1,58.046875,
26:24.4,836.4835165,853.003663,847.7655678,834.8717949,776.043956,-0.023315,0.191406,0.990112,-1.188812,3.469238,3.850555,1,1,1,1,1,58.046875,
26:24.7,836.4835165,844.5421245,832.8571429,830.8424908,785.3113553,-0.019592,0.195007,0.983826,-1.300964,3.783264,3.476715,1,1,1,1,1,58.046875,
26:25.2,836.4835165,849.7802198,796.1904762,833.6630037,788.9377289,-0.019531,0.196289,0.993469,-0.852356,3.880463,3.798218,1,1,1,1,1,58.046875,
26:25.3,836.4835165,841.7216117,800.2197802,844.9450549,828.021978,-0.024902,0.192505,0.990662,-1.443024,3.940277,4.052429,1,1,1,1,1,58.046875,
26:25.4,836.4835165,834.0659341,834.0659341,830.4395604,770.4029304,-0.019104,0.195801,0.990662,-1.106567,3.491669,3.618774,1,1,1,1,1,58.046875,
26:25.7,836.4835165,854.6153846,835.6776557,833.2600733,772.014652,-0.022888,0.193359,0.990906,-1.039276,3.39447,3.648682,1,1,1,1,1,58.046875,
26:26.1,836.4835165,840.5128205,817.5457875,828.4249084,774.4322344,-0.025818,0.194885,0.98999,-1.26358,3.424377,4.224396,1,1,1,1,1,58.046875,
26:26.3,836.4835165,843.3333333,813.1135531,831.6483516,811.9047619,-0.021973,0.197388,0.991211,-1.211243,4.134674,4.022522,1,1,1,1,1,58.046875,
26:26.3,836.4835165,854.6153846,825.6043956,835.2747253,769.5970696,-0.023987,0.194824,0.982544,-1.413116,3.573914,3.588867,1,1,1,1,1,58.046875,
26:26.4,836.4835165,845.7509158,843.3333333,838.0952381,834.0659341,-0.021973,0.193726,0.985962,-1.555176,3.401947,3.775787,1,1,1,1,1,58.046875,
26:26.5,836.4835165,848.5714286,866.3003663,841.3186813,830.4395604,-0.021973,0.193726,0.985962,-1.555176,3.401947,3.775787,1,1,1,1,1,58.046875,
26:26.6,836.4835165,847.3626374,818.3516484,833.2600733,772.8205128,-0.029663,0.192322,0.990417,-1.570129,3.970184,3.925323,1,1,1,1,1,58.046875,
26:27.4,836.4835165,850.1831502,833.6630037,829.2307692,788.9377289,-0.022339,0.192749,0.986633,-1.375732,3.454285,3.880463,1,1,1,1,1,58.046875,
26:27.7,836.4835165,846.959707,830.4395604,833.2600733,795.7875458,-0.019043,0.19458,0.991577,-0.770111,3.53653,3.648682,1,1,1,1,1,58.046875,
26:27.9,836.4835165,844.1391941,860.6593407,833.2600733,910.6227106,-0.018127,0.194946,0.992554,-1.084137,3.39447,3.730927,1,1,1,1,1,58.046875,
26:28.0,836.4835165,840.1098901,828.021978,836.0805861,896.5201465,-0.018127,0.194946,0.992554,-1.084137,3.39447,3.730927,1,1,1,1,1,58.046875,
26:30.2,836.4835165,848.1684982,822.7838828,830.4395604,800.2197802,-0.021667,0.193054,0.98938,-1.353302,3.858032,4.104767,1,2,1,1,2,58.046875,
26:30.3,836.4835165,847.3626374,895.3113553,845.7509158,906.996337,-0.018616,0.194641,0.990295,-1.211243,3.544006,3.895416,1,2,1,1,2,58.046875,
26:30.7,836.4835165,833.2600733,885.2380952,848.5714286,898.5347985,-0.015015,0.19696,0.991211,-1.05423,3.566437,3.334656,1,2,1,1,2,58.03125,
26:30.8,836.4835165,840.9157509,883.2234432,838.0952381,930.7692308,-0.018555,0.194519,0.984741,-1.286011,3.775787,3.259888,1,2,1,1,2,58.03125,
26:31.0,836.4835165,859.4505495,869.5238095,832.8571429,919.8901099,-0.023071,0.192627,0.989502,-1.547699,3.962708,3.39447,1,2,1,1,2,58.03125,
26:31.7,836.4835165,851.7948718,868.7179487,836.4835165,914.6520147,-0.018921,0.193481,0.988098,-1.143951,3.252411,3.37204,1,1,1,1,1,58.03125,
26:31.8,836.4835165,839.3040293,802.2344322,846.959707,768.7912088,-0.016602,0.197388,0.991577,-1.091614,3.977661,3.416901,1,1,1,1,1,58.03125,
26:23.2,836.8864469,848.974359,822.3809524,827.2161172,836.4835165,-0.028931,0.191345,0.987427,-1.256104,4.254303,2.930908,1,1,1,1,1,58.046875,
26:23.5,836.8864469,855.8241758,807.8754579,841.3186813,801.025641,-0.02655,0.193665,0.98645,-1.031799,3.843079,3.850555,1,2,1,1,2,58.046875,
26:23.6,836.8864469,838.4981685,805.0549451,835.2747253,819.1575092,-0.030029,0.191833,0.991821,-1.188812,3.813171,3.656158,1,2,1,1,2,58.046875,
26:23.9,836.8864469,855.8241758,836.4835165,834.0659341,770,-0.022949,0.194763,0.990479,-1.383209,3.319702,3.671112,1,1,1,1,1,58.046875,
26:24.0,836.8864469,848.1684982,836.0805861,845.3479853,864.6886447,-0.024231,0.193176,0.99292,-0.837402,3.035583,3.566437,1,1,1,1,1,58.046875,
26:24.5,836.8864469,848.974359,876.3736264,837.6923077,810.2930403,-0.023315,0.191406,0.990112,-1.188812,3.469238,3.850555,1,1,1,1,1,58.046875,
26:24.6,836.8864469,846.959707,835.2747253,830.4395604,792.5641026,-0.02301,0.193726,0.99292,-1.05423,3.760834,3.835602,1,1,1,1,1,58.046875,
26:24.9,836.8864469,848.1684982,844.9450549,845.7509158,839.3040293,-0.018677,0.194092,0.990112,-1.136475,3.170166,3.282318,1,1,1,1,1,58.046875,
26:25.1,836.8864469,845.3479853,810.6959707,834.8717949,747.032967,-0.019043,0.193054,0.98999,-1.398163,3.446808,3.91037,1,1,1,1,1,58.046875,
26:25.3,836.8864469,849.3772894,792.5641026,832.0512821,782.4908425,-0.024902,0.192505,0.990662,-1.443024,3.940277,4.052429,1,1,1,1,1,58.046875,
26:25.4,836.8864469,847.7655678,841.7216117,838.9010989,808.6813187,-0.019104,0.195801,0.990662,-1.106567,3.491669,3.618774,1,1,1,1,1,58.046875,
26:25.8,836.8864469,839.7069597,818.7545788,835.6776557,840.5128205,-0.022034,0.19342,0.989807,-1.158905,3.58139,3.686066,1,1,1,1,1,58.046875,
26:25.9,836.8864469,847.3626374,842.1245421,840.1098901,818.7545788,-0.02063,0.193176,0.990723,-1.136475,3.566437,3.790741,1,1,1,1,1,58.046875,
26:25.9,836.8864469,842.9304029,842.1245421,836.0805861,792.967033,-0.02063,0.193176,0.990723,-1.136475,3.566437,3.790741,1,1,1,1,1,58.046875,
26:26.0,836.8864469,843.3333333,829.6336996,835.6776557,808.2783883,-0.024841,0.191711,0.990417,-1.121521,4.037476,3.454285,1,1,1,1,1,58.046875,
26:26.1,836.8864469,841.7216117,821.978022,838.4981685,839.7069597,-0.019348,0.195374,0.989685,-0.822449,4.059906,3.596344,1,1,1,1,1,58.046875,
26:26.3,836.8864469,822.3809524,818.3516484,830.4395604,786.9230769,-0.02124,0.19574,0.992126,-1.031799,3.431854,3.237457,1,1,1,1,1,58.046875,
26:26.5,836.8864469,854.6153846,841.3186813,839.3040293,777.6556777,-0.020325,0.194397,0.988464,-0.777588,3.633728,3.476715,1,1,1,1,1,58.046875,
26:26.7,836.8864469,852.6007326,832.8571429,839.7069597,812.7106227,-0.024231,0.19342,0.988037,-1.271057,3.446808,3.04306,1,1,1,1,1,58.046875,
26:26.8,836.8864469,844.1391941,819.96337,838.9010989,811.9047619,-0.02179,0.194641,0.98999,-1.226196,3.551483,3.648682,1,1,1,1,1,58.046875,
26:27.9,836.8864469,861.0622711,839.3040293,831.6483516,850.989011,-0.019714,0.192322,0.988403,-1.338348,3.409424,3.259888,1,1,1,1,1,58.046875,
26:28.2,836.8864469,850.989011,825.6043956,836.0805861,866.7032967,-0.020813,0.193481,0.991394,-1.009369,3.58139,3.603821,1,1,1,1,1,58.046875,
26:29.6,836.8864469,839.7069597,826.007326,838.9010989,755.8974359,-0.019409,0.194031,0.991028,-1.345825,3.529053,3.289795,1,1,1,1,1,58.046875,
26:29.8,836.8864469,859.047619,912.2344322,840.9157509,919.0842491,-0.022522,0.195068,0.993591,-0.957031,3.102875,3.9328,1,1,1,1,1,58.046875,
26:30.7,836.8864469,844.5421245,876.3736264,853.8095238,931.978022,-0.015015,0.19696,0.991211,-1.05423,3.566437,3.334656,1,2,1,1,2,58.03125,
26:31.3,836.8864469,858.2417582,813.1135531,834.8717949,771.2087912,-0.020325,0.19458,0.99115,-1.151428,3.686066,3.880463,1,1,1,1,1,58.03125,
26:31.7,836.8864469,852.1978022,834.0659341,823.5897436,813.9194139,-0.021118,0.193542,0.988953,-1.457977,3.005676,4.067383,1,1,1,1,1,58.03125,
26:23.2,837.2893773,850.1831502,833.6630037,834.8717949,867.1062271,-0.028931,0.191345,0.987427,-1.256104,4.254303,2.930908,1,1,1,1,1,58.046875,
26:23.7,837.2893773,857.8388278,814.7252747,844.9450549,780.8791209,-0.028198,0.193542,0.994812,-0.485992,3.028107,4.015045,1,2,1,1,2,58.046875,
26:23.8,837.2893773,856.6300366,805.0549451,845.3479853,853.8095238,-0.026001,0.193237,0.98761,-1.315918,2.83371,3.985138,1,1,1,1,1,58.046875,
26:24.2,837.2893773,843.3333333,838.9010989,844.1391941,863.0769231,-0.027832,0.194214,0.990723,-1.286011,3.753357,4.314117,1,1,1,1,1,58.046875,
26:24.4,837.2893773,846.959707,861.0622711,842.1245421,876.7765568,-0.023315,0.191406,0.990112,-1.188812,3.469238,3.850555,1,1,1,1,1,58.046875,
26:24.5,837.2893773,858.2417582,867.9120879,834.0659341,786.5201465,-0.023315,0.191406,0.990112,-1.188812,3.469238,3.850555,1,1,1,1,1,58.046875,
26:25.0,837.2893773,844.9450549,824.7985348,834.8717949,777.2527473,-0.021729,0.194214,0.990967,-1.114044,3.887939,4.022522,1,1,1,1,1,58.046875,
26:25.0,837.2893773,842.1245421,808.2783883,838.9010989,801.025641,-0.021729,0.194214,0.990967,-1.114044,3.887939,4.022522,1,1,1,1,1,58.046875,
26:25.0,837.2893773,844.5421245,814.3223443,839.7069597,845.3479853,-0.02417,0.190796,0.986023,-1.480408,3.813171,3.820648,1,1,1,1,1,58.046875,
26:25.1,837.2893773,843.7362637,830.8424908,832.8571429,800.6227106,-0.021912,0.193848,0.994263,-0.672913,3.424377,3.476715,1,1,1,1,1,58.046875,
26:25.4,837.2893773,846.959707,824.7985348,843.7362637,776.4468864,-0.019104,0.195801,0.990662,-1.106567,3.491669,3.618774,1,1,1,1,1,58.046875,
26:25.5,837.2893773,844.9450549,811.5018315,829.6336996,759.5238095,-0.024414,0.192383,0.989197,-1.218719,3.648682,4.09729,1,1,1,1,1,58.046875,
26:25.5,837.2893773,854.6153846,815.5311355,837.2893773,786.5201465,-0.021912,0.194214,0.991211,-1.061707,3.55896,3.760834,1,1,1,1,1,58.046875,
26:26.2,837.2893773,842.1245421,824.3956044,837.2893773,767.985348,-0.023438,0.19342,0.984802,-1.398163,3.641205,3.58139,1,1,1,1,1,58.046875,
26:26.5,837.2893773,842.9304029,856.2271062,837.2893773,883.2234432,-0.021973,0.193726,0.985962,-1.555176,3.401947,3.775787,1,1,1,1,1,58.046875,
26:26.7,837.2893773,840.5128205,828.8278388,843.7362637,898.5347985,-0.02179,0.194641,0.98999,-1.226196,3.551483,3.648682,1,1,1,1,1,58.046875,
26:27.1,837.2893773,850.1831502,828.021978,826.8131868,787.7289377,-0.018921,0.195312,0.987671,-1.128998,3.192596,3.902893,1,1,1,1,1,58.046875,
26:28.6,837.2893773,854.2124542,861.0622711,838.9010989,862.6739927,-0.021057,0.192444,0.988037,-1.05423,3.349609,3.573914,1,1,1,1,1,58.046875,
26:28.8,837.2893773,856.6300366,846.959707,834.0659341,846.1538462,-0.021851,0.194092,0.993225,-0.91217,3.140259,3.708496,1,1,1,1,1,58.046875,
26:23.4,837.6923077,852.1978022,853.8095238,839.7069597,814.7252747,-0.028381,0.19165,0.989075,-1.24115,3.431854,3.955231,1,2,1,1,2,58.046875,
26:24.0,837.6923077,848.974359,819.1575092,836.4835165,764.7619048,-0.026367,0.190552,0.99176,-1.345825,3.312225,3.835602,1,1,1,1,1,58.046875,
26:24.0,837.6923077,847.3626374,819.1575092,839.3040293,802.2344322,-0.024231,0.193176,0.99292,-0.837402,3.035583,3.566437,1,1,1,1,1,58.046875,
26:24.3,837.6923077,839.3040293,830.4395604,828.4249084,753.8827839,-0.019897,0.194946,0.99115,-1.128998,3.18512,3.469238,1,1,1,1,1,58.046875,
26:24.7,837.6923077,858.6446886,842.5274725,840.1098901,752.2710623,-0.019592,0.195007,0.983826,-1.300964,3.783264,3.476715,1,1,1,1,1,58.046875,
26:25.3,837.6923077,848.1684982,803.8461538,848.974359,777.6556777,-0.024902,0.192505,0.990662,-1.443024,3.940277,4.052429,1,1,1,1,1,58.046875,
26:25.4,837.6923077,837.6923077,838.0952381,840.9157509,792.967033,-0.023682,0.1922,0.98877,-1.24115,3.588867,3.222504,1,1,1,1,1,58.046875,
26:25.4,837.6923077,853.8095238,802.2344322,828.4249084,739.3772894,-0.019104,0.195801,0.990662,-1.106567,3.491669,3.618774,1,1,1,1,1,58.046875,
26:25.6,837.6923077,848.974359,842.5274725,839.7069597,857.4358974,-0.023071,0.193604,0.989563,-1.173859,3.820648,3.805695,1,1,1,1,1,58.046875,
26:25.7,837.6923077,854.2124542,826.4102564,832.4542125,803.8461538,-0.022888,0.193359,0.990906,-1.039276,3.39447,3.648682,1,1,1,1,1,58.046875,
26:25.7,837.6923077,861.0622711,834.8717949,833.2600733,791.7582418,-0.022888,0.193359,0.990906,-1.039276,3.39447,3.648682,1,1,1,1,1,58.046875,
26:25.7,837.6923077,861.0622711,834.8717949,833.2600733,791.7582418,-0.022888,0.193359,0.990906,-1.039276,3.39447,3.648682,1,1,1,1,1,58.046875,
26:25.7,837.6923077,861.0622711,834.8717949,833.2600733,791.7582418,-0.022888,0.193359,0.990906,-1.039276,3.39447,3.648682,1,1,1,1,1,58.046875,
26:25.7,837.6923077,861.0622711,834.8717949,833.2600733,791.7582418,-0.022888,0.193359,0.990906,-1.039276,3.39447,3.648682,1,1,1,1,1,58.046875,
26:25.7,837.6923077,861.0622711,834.8717949,833.2600733,791.7582418,-0.022888,0.193359,0.990906,-1.039276,3.39447,3.648682,1,1,1,1,1,58.046875,
26:25.7,837.6923077,861.0622711,834.8717949,833.2600733,791.7582418,-0.022888,0.193359,0.990906,-1.039276,3.39447,3.648682,1,1,1,1,1,58.046875,
26:26.4,837.6923077,844.1391941,839.7069597,831.2454212,809.4871795,-0.024841,0.19397,0.993652,-0.979462,3.386993,3.544006,1,1,1,1,1,58.046875,
26:26.5,837.6923077,850.989011,842.1245421,838.9010989,852.1978022,-0.020325,0.194397,0.988464,-0.777588,3.633728,3.476715,1,1,1,1,1,58.046875,
26:26.5,837.6923077,836.0805861,830.03663,828.8278388,796.5934066,-0.020325,0.194397,0.988464,-0.777588,3.633728,3.476715,1,1,1,1,1,58.046875,
26:26.9,837.6923077,836.0805861,877.5824176,853.8095238,900.1465201,-0.023438,0.192993,0.989624,-0.897217,3.342133,3.977661,1,1,1,1,1,58.046875,
26:27.1,837.6923077,844.9450549,845.7509158,835.2747253,831.6483516,-0.022644,0.19458,0.990723,-1.114044,3.424377,3.9328,1,1,1,1,1,58.046875,
26:28.8,837.6923077,847.7655678,830.8424908,838.4981685,833.2600733,-0.021851,0.194092,0.993225,-0.91217,3.140259,3.708496,1,1,1,1,1,58.046875,
26:29.5,837.6923077,847.3626374,845.3479853,842.9304029,836.4835165,-0.020996,0.197937,0.988586,-1.59256,2.841187,3.783264,1,1,1,1,1,58.046875,
26:30.3,837.6923077,846.959707,842.9304029,828.8278388,830.4395604,-0.018616,0.194641,0.990295,-1.211243,3.544006,3.895416,1,2,1,1,2,58.046875,
26:30.6,837.6923077,836.4835165,833.2600733,836.0805861,786.1172161,-0.018372,0.192932,0.986328,-1.233673,3.110352,3.364563,1,2,1,1,2,58.03125,
26:30.6,837.6923077,835.2747253,865.0915751,855.018315,901.7582418,-0.018372,0.192932,0.986328,-1.233673,3.110352,3.364563,1,2,1,1,2,58.03125,
26:23.0,838.0952381,834.8717949,821.5750916,827.2161172,776.8498168,-0.02124,0.195557,0.985229,-1.585083,3.708496,4.037476,1,1,1,1,1,58.046875,
26:23.0,838.0952381,839.3040293,817.5457875,838.4981685,824.3956044,-0.02124,0.195557,0.985229,-1.585083,3.708496,4.037476,1,1,1,1,1,58.046875,
26:23.3,838.0952381,840.9157509,847.3626374,840.9157509,869.5238095,-0.023865,0.192444,0.990112,-1.495361,3.58139,3.297272,1,1,1,1,1,58.046875,
26:23.4,838.0952381,846.1538462,844.5421245,829.2307692,796.996337,-0.027222,0.192993,0.992432,-0.934601,3.865509,3.760834,1,2,1,1,2,58.046875,
26:23.6,838.0952381,843.3333333,797.8021978,833.2600733,749.047619,-0.030029,0.191833,0.991821,-1.188812,3.813171,3.656158,1,2,1,1,2,58.046875,
26:24.4,838.0952381,844.1391941,850.989011,833.2600733,793.3699634,-0.021912,0.192017,0.990051,-1.42807,3.476715,4.052429,1,1,1,1,1,58.046875,
26:24.8,838.0952381,848.5714286,814.3223443,822.3809524,813.1135531,-0.024109,0.19397,0.993347,-0.837402,3.267365,4.127197,1,1,1,1,1,58.046875,
